EEG 1, EEG 2, EEG 3, EEG 4, EEG 5, EEG 6, EEG 7, EEG 8, TRIG
750000.100,-590125.300,-421919.700,-750000.100,750000.100,29971.280,441866.200,13530.320,0.000
652631.100,-750000.100,-750000.100,-750000.100,750000.100,-57575.770,633324.400,-344417.300,0.000
566122.400,-501766.500,-750000.100,-750000.100,750000.100,-22404.940,302852.100,-214521.700,0.000
566545.900,284965.800,204125.500,-750000.100,750000.100,326143.300,-437859.000,154969.800,0.000
616612.100,390701.100,750000.100,18995.050,750000.100,568365.200,-335366.000,325263.800,0.000
683560.900,366516.300,750000.100,640089.000,750000.100,582842.500,284867.000,476302.600,0.000
750000.100,501808.800,750000.100,667397.400,750000.100,597447.800,750000.100,618811.800,0.000
750000.100,750000.100,750000.100,669924.800,750000.100,750000.100,711860.000,734638.200,0.000
750000.100,750000.100,750000.100,750000.100,750000.100,750000.100,680803.700,750000.100,0.000
750000.100,750000.100,750000.100,750000.100,750000.100,750000.100,750000.100,750000.100,0.000
750000.100,750000.100,750000.100,750000.100,750000.100,750000.100,750000.100,750000.100,0.000
750000.100,750000.100,750000.100,750000.100,750000.100,750000.100,750000.100,750000.100,0.000
750000.100,750000.100,750000.100,750000.100,750000.100,750000.100,750000.100,750000.100,0.000
750000.100,750000.100,750000.100,750000.100,750000.100,750000.100,750000.100,750000.100,0.000
750000.100,750000.100,750000.100,750000.100,750000.100,750000.100,750000.100,750000.100,0.000
750000.100,750000.100,750000.100,750000.100,750000.100,750000.100,750000.100,750000.100,0.000
750000.100,750000.100,750000.100,750000.100,750000.100,750000.100,750000.100,750000.100,0.000
750000.100,750000.100,750000.100,750000.100,750000.100,750000.100,750000.100,750000.100,0.000
750000.100,750000.100,750000.100,750000.100,750000.100,750000.100,750000.100,750000.100,0.000
750000.100,750000.100,750000.100,750000.100,750000.100,750000.100,750000.100,750000.100,0.000
705969.100,750000.100,750000.100,750000.100,750000.100,750000.100,750000.100,750000.100,0.000
618267.500,750000.100,750000.100,750000.100,750000.100,750000.100,750000.100,750000.100,0.000
564186.900,750000.100,750000.100,750000.100,750000.100,750000.100,750000.100,750000.100,0.000
543572.200,750000.100,750000.100,750000.100,750000.100,750000.100,750000.100,750000.100,0.000
528221.000,750000.100,750000.100,750000.100,750000.100,750000.100,750000.100,750000.100,0.000
514027.000,750000.100,750000.100,750000.100,750000.100,750000.100,750000.100,750000.100,0.000
500973.000,750000.100,750000.100,750000.100,750000.100,750000.100,750000.100,750000.100,0.000
488990.200,750000.100,750000.100,750000.100,750000.100,750000.100,750000.100,750000.100,0.000
477901.200,750000.100,750000.100,750000.100,750000.100,750000.100,750000.100,750000.100,0.000
467525.500,750000.100,750000.100,750000.100,750000.100,750000.100,750000.100,750000.100,0.000
457817.600,750000.100,750000.100,750000.100,750000.100,750000.100,750000.100,750000.100,0.000
448813.300,750000.100,750000.100,750000.100,750000.100,750000.100,750000.100,750000.100,0.000
440479.800,750000.100,750000.100,750000.100,750000.100,750000.100,750000.100,750000.100,0.000
432694.500,750000.100,750000.100,750000.100,750000.100,750000.100,750000.100,750000.100,0.000
425326.600,750000.100,750000.100,750000.100,750000.100,750000.100,750000.100,750000.100,0.000
418370.700,750000.100,750000.100,750000.100,750000.100,750000.100,750000.100,750000.100,0.000
411866.100,750000.100,750000.100,750000.100,750000.100,750000.100,750000.100,750000.100,0.000
405816.400,750000.100,750000.100,750000.100,750000.100,750000.100,750000.100,750000.100,0.000
400136.500,750000.100,750000.100,750000.100,750000.100,750000.100,750000.100,750000.100,0.000
394717.700,750000.100,750000.100,750000.100,750000.100,750000.100,750000.100,750000.100,0.000
389548.500,750000.100,750000.100,750000.100,750000.100,750000.100,750000.100,750000.100,0.000
384702.300,750000.100,750000.100,750000.100,750000.100,750000.100,750000.100,750000.100,0.000
380191.300,750000.100,750000.100,750000.100,750000.100,750000.100,750000.100,750000.100,0.000
375928.000,750000.100,750000.100,750000.100,750000.100,750000.100,750000.100,750000.100,0.000
371832.600,750000.100,750000.100,750000.100,750000.100,750000.100,750000.100,750000.100,0.000
367903.900,750000.100,750000.100,750000.100,750000.100,750000.100,750000.100,750000.100,0.000
364213.000,750000.100,750000.100,750000.100,750000.100,750000.100,750000.100,750000.100,0.000
360770.500,750000.100,750000.100,750000.100,750000.100,750000.100,750000.100,750000.100,0.000
357502.700,750000.100,750000.100,750000.100,750000.100,750000.100,750000.100,750000.100,0.000
354345.000,750000.100,750000.100,750000.100,750000.100,750000.100,750000.100,750000.100,0.000
351290.800,750000.100,750000.100,750000.100,750000.100,750000.100,750000.100,750000.100,0.000
348411.200,750000.100,750000.100,750000.100,750000.100,750000.100,750000.100,750000.100,0.000
345731.500,750000.100,750000.100,750000.100,750000.100,750000.100,750000.100,750000.100,0.000
343190.200,750000.100,750000.100,750000.100,750000.100,750000.100,750000.100,750000.100,0.000
340717.200,750000.100,750000.100,750000.100,750000.100,750000.100,750000.100,750000.100,0.000
338315.200,750000.100,750000.100,750000.100,750000.100,750000.100,750000.100,750000.100,0.000
336057.200,750000.100,750000.100,750000.100,750000.100,750000.100,750000.100,750000.100,0.000
333966.000,750000.100,750000.100,750000.100,750000.100,750000.100,750000.100,750000.100,0.000
331975.700,750000.100,750000.100,750000.100,750000.100,750000.100,750000.100,750000.100,0.000
330020.800,750000.100,750000.100,750000.100,750000.100,750000.100,750000.100,750000.100,0.000
328102.400,750000.100,750000.100,750000.100,750000.100,750000.100,750000.100,750000.100,0.000
326298.700,750000.100,750000.100,750000.100,750000.100,750000.100,750000.100,750000.100,0.000
324634.400,750000.100,750000.100,750000.100,750000.100,750000.100,750000.100,750000.100,0.000
323058.400,750000.100,750000.100,750000.100,750000.100,750000.100,750000.100,750000.100,0.000
321498.200,750000.100,750000.100,750000.100,750000.100,750000.100,750000.100,750000.100,0.000
319964.600,750000.100,750000.100,750000.100,750000.100,750000.100,750000.100,750000.100,0.000
318524.800,750000.100,750000.100,750000.100,750000.100,750000.100,750000.100,750000.100,0.000
317209.500,750000.100,750000.100,750000.100,750000.100,750000.100,750000.100,750000.100,0.000
315958.300,750000.100,750000.100,750000.100,750000.100,750000.100,750000.100,750000.100,0.000
314693.600,750000.100,750000.100,750000.100,750000.100,750000.100,750000.100,750000.100,0.000
313446.500,750000.100,750000.100,750000.100,750000.100,750000.100,750000.100,750000.100,0.000
312272.700,750000.100,750000.100,750000.100,750000.100,750000.100,750000.100,750000.100,0.000
311206.600,750000.100,750000.100,750000.100,750000.100,750000.100,750000.100,750000.100,0.000
310192.800,750000.100,750000.100,750000.100,750000.100,750000.100,750000.100,750000.100,0.000
309168.300,750000.100,750000.100,750000.100,750000.100,750000.100,750000.100,750000.100,0.000
308150.000,750000.100,750000.100,750000.100,750000.100,750000.100,750000.100,750000.100,0.000
307200.000,750000.100,750000.100,750000.100,750000.100,750000.100,750000.100,750000.100,0.000
306343.800,750000.100,750000.100,750000.100,750000.100,750000.100,750000.100,750000.100,0.000
305535.300,750000.100,750000.100,750000.100,750000.100,750000.100,750000.100,750000.100,0.000
304701.800,750000.100,750000.100,750000.100,750000.100,750000.100,750000.100,750000.100,0.000
303852.800,750000.100,750000.100,750000.100,750000.100,750000.100,750000.100,750000.100,0.000
303065.200,750000.100,750000.100,750000.100,750000.100,750000.100,750000.100,750000.100,0.000
302370.400,749756.900,749881.200,750000.100,750000.100,750000.100,750000.100,750000.100,0.000
301712.900,748227.300,748352.200,748839.200,748529.200,748528.400,748935.800,748733.100,0.000
301032.700,746755.200,746881.400,747367.200,747058.300,747057.300,747463.800,747261.500,0.000
300335.500,745343.600,745470.600,745955.100,745646.400,745645.600,746051.800,745849.900,0.000
299691.500,743992.700,744120.600,744603.700,744295.300,744295.100,744700.800,744499.400,0.000
299128.400,742697.000,742825.200,743307.100,743000.200,742999.200,743404.900,743203.700,0.000
298596.200,741454.900,741583.200,742065.200,741758.300,741757.500,742162.400,741961.800,0.000
298037.500,740261.000,740388.900,740870.100,740564.100,740563.100,740967.900,740767.500,0.000
297455.500,739111.200,739240.000,739719.800,739414.900,739413.400,739818.100,739618.200,0.000
296920.700,738009.300,738139.200,738617.900,738313.800,738312.300,738716.300,738516.800,0.000
296457.400,736957.200,737087.600,737565.900,737261.900,737261.000,737664.300,737465.600,0.000
296016.900,735945.000,736075.900,736553.100,736248.900,736248.800,736651.300,736453.000,0.000
295555.100,734977.100,735108.300,735584.900,735281.300,735280.400,735683.200,735484.600,0.000
295053.300,734037.900,734169.800,734645.400,734342.300,734341.400,734744.300,734545.900,0.000
294597.200,733138.900,733270.500,733745.500,733443.100,733442.400,733845.000,733647.300,0.000
294215.200,732282.200,732414.200,732888.700,732586.400,732586.100,732988.300,732790.400,0.000
293861.600,731458.300,731590.700,732064.800,731762.900,731762.600,732163.800,731966.800,0.000
293467.500,730664.400,730796.900,731270.400,730968.900,730968.700,731369.800,731172.900,0.000
293046.700,729900.600,730033.600,730505.800,730205.000,730204.600,730605.500,730409.100,0.000
292663.300,729167.600,729301.200,729773.100,729472.300,729471.800,729872.600,729676.700,0.000
292349.300,728468.500,728602.000,729073.900,728773.200,728773.000,729173.500,728977.700,0.000
292053.700,727795.800,727929.400,728400.600,728100.300,728100.100,728500.300,728304.900,0.000
291718.600,727143.900,727277.900,727748.600,727448.600,727448.400,727848.900,727653.100,0.000
291356.100,726514.500,726648.600,727119.000,726819.300,726819.100,727219.500,727023.400,0.000
291040.100,725916.200,726050.300,726520.900,726221.100,726220.800,726620.900,726425.400,0.000
290784.100,725342.400,725476.300,725946.100,725647.000,725646.800,726046.600,725851.300,0.000
290554.300,724791.900,724926.600,725395.600,725097.100,725096.800,725496.400,725301.000,0.000
290285.600,724262.600,724397.600,724866.100,724567.900,724567.300,724966.400,724771.700,0.000
289977.400,723748.300,723883.800,724351.500,724054.400,724053.400,724452.200,724257.900,0.000
289700.600,723253.900,723389.400,723856.600,723559.500,723558.900,723957.500,723763.200,0.000
289488.700,722783.600,722919.100,723386.200,723088.700,723088.400,723487.000,723292.800,0.000
289299.100,722333.800,722469.400,722935.800,722638.600,722638.800,723036.800,722842.800,0.000
289067.800,721898.300,722033.700,722500.300,722203.100,722203.300,722601.400,722407.600,0.000
288808.600,721476.400,721611.800,722078.300,721781.500,721781.300,722179.400,721985.600,0.000
288570.800,721070.100,721206.100,721671.800,721375.100,721374.800,721773.200,721578.900,0.000
288393.200,720682.300,720818.600,721283.900,720987.200,720987.100,721385.100,721191.100,0.000
288235.200,720312.400,720448.400,720914.100,720617.300,720617.400,721014.600,720821.100,0.000
288038.400,719954.600,720090.300,720555.400,720259.300,720259.200,720656.400,720463.100,0.000
287807.400,719608.800,719744.900,720209.400,719913.700,719913.400,720310.800,720117.800,0.000
287603.400,719274.200,719410.500,719874.900,719579.100,719579.300,719976.400,719783.300,0.000
287458.400,718953.400,719090.100,719554.000,719259.100,719258.500,719655.800,719462.900,0.000
287326.300,718647.100,718784.100,719247.500,718952.700,718952.000,719349.200,719156.500,0.000
287150.000,718348.600,718485.500,718948.800,718654.100,718653.600,719050.400,718857.600,0.000
286935.100,718056.400,718192.900,718656.300,718361.800,718361.300,718757.800,718565.400,0.000
286757.500,717777.300,717913.800,718377.100,718082.600,718082.300,718478.700,718286.100,0.000
286641.300,717514.100,717651.100,718113.600,717819.300,717819.300,718215.900,718023.000,0.000
286533.800,717261.300,717398.100,717860.800,717566.700,717566.700,717963.000,717770.300,0.000
286385.900,717014.100,717151.600,717613.900,717320.100,717319.800,717716.300,717523.900,0.000
286207.100,716775.700,716913.400,717375.500,717081.300,717081.300,717477.700,717285.100,0.000
286051.600,716545.900,716683.700,717146.000,716851.600,716851.700,717247.500,717055.100,0.000
285944.700,716326.300,716463.800,716926.100,716631.900,716631.900,717027.800,716835.600,0.000
285856.800,716118.300,716256.300,716717.800,716424.100,716423.900,716819.900,716627.800,0.000
285727.100,715915.100,716053.100,716514.900,716220.800,716220.800,716616.800,716424.700,0.000
285557.600,715717.300,715855.300,716316.900,716023.100,716023.100,716418.700,716227.200,0.000
285423.500,715523.800,715661.300,716123.100,715829.100,715829.500,716224.800,716033.200,0.000
285350.200,715345.400,715482.900,715944.400,715650.400,715651.300,716046.300,715854.500,0.000
285282.800,715172.200,715310.200,715771.100,715477.900,715478.100,715873.100,715681.400,0.000
285173.700,715004.300,715142.100,715603.300,715309.600,715310.100,715704.900,715513.500,0.000
285023.700,714837.600,714975.400,715436.400,715142.700,715143.600,715538.400,715347.100,0.000
284901.500,714676.900,714814.600,715275.500,714982.100,714982.600,715377.600,715185.900,0.000
284831.200,714525.300,714663.200,715124.100,714830.800,714831.100,715226.300,715034.500,0.000
284772.300,714379.800,714517.800,714978.700,714685.100,714685.700,715080.500,714889.200,0.000
284665.700,714237.800,714376.000,714836.600,714543.200,714543.600,714938.800,714746.900,0.000
284525.700,714097.900,714236.400,714696.900,714403.300,714403.600,714798.900,714607.100,0.000
284409.500,713962.900,714101.900,714562.000,714268.700,714269.000,714664.000,714472.400,0.000
284352.800,713835.400,713974.400,714434.600,714141.700,714141.700,714536.500,714345.100,0.000
284311.900,713715.300,713854.300,714314.600,714021.500,714021.500,714416.600,714224.900,0.000
284221.000,713596.800,713735.300,714195.500,713902.100,713902.100,714297.900,714106.200,0.000
284083.900,713477.100,713616.100,714076.300,713783.100,713783.100,714178.400,713986.800,0.000
283987.100,713364.600,713502.900,713962.700,713670.500,713670.700,714065.500,713874.000,0.000
283947.500,713260.200,713398.900,713858.300,713566.100,713566.100,713961.100,713769.800,0.000
283910.900,713162.100,713300.400,713759.900,713467.800,713467.900,713862.600,713671.300,0.000
283826.500,713060.300,713199.100,713658.100,713366.500,713366.400,713760.900,713569.600,0.000
283703.700,712959.800,713098.600,713557.800,713265.900,713265.800,713660.300,713469.100,0.000
283605.500,712860.900,712999.300,713459.100,713166.700,713166.900,713561.300,713370.200,0.000
283563.800,712768.200,712906.700,713366.300,713073.900,713074.100,713468.500,713277.300,0.000
283544.100,712684.900,712823.400,713282.800,712990.400,712990.600,713385.000,713194.100,0.000
283473.100,712601.600,712740.100,713199.800,712907.300,712907.300,713301.800,713110.800,0.000
283350.800,712511.700,712650.600,713109.900,712817.800,712817.400,713212.300,713021.500,0.000
283264.800,712430.300,712569.100,713028.400,712736.100,712736.000,713130.800,712940.100,0.000
283239.800,712357.400,712496.300,712955.100,712663.100,712663.500,713057.900,712866.900,0.000
283227.100,712289.500,712428.000,712887.400,712595.000,712595.200,712990.100,712798.600,0.000
283165.800,712221.300,712360.100,712819.700,712527.100,712527.000,712922.100,712730.400,0.000
283060.200,712149.400,712288.000,712747.400,712455.600,712455.100,712850.300,712659.100,0.000
282984.200,712082.400,712220.600,712680.100,712388.400,712388.300,712782.900,712592.100,0.000
282958.000,712018.900,712157.600,712616.600,712324.800,712325.100,712719.300,712528.700,0.000
282941.300,711956.400,712094.900,712553.900,712262.000,712261.700,712656.600,712466.200,0.000
282879.900,711894.700,712033.600,712492.400,712200.400,712200.100,712594.800,712404.800,0.000
282777.600,711829.600,711969.100,712427.400,712135.900,712135.400,712529.800,712339.900,0.000
282696.700,711767.100,711906.400,712365.000,712073.100,712072.900,712467.600,712277.400,0.000
282672.600,711712.900,711852.100,712310.900,712018.700,712018.600,712413.100,712222.800,0.000
282661.300,711661.500,711801.000,712259.500,711967.600,711967.600,712361.800,712171.300,0.000
282603.500,711606.400,711745.800,712204.500,711912.800,711912.600,712306.900,712116.400,0.000
282505.600,711553.400,711692.400,712150.900,711859.200,711859.400,712253.700,712063.300,0.000
282436.000,711505.100,711644.000,712102.600,711810.600,711810.800,712204.900,712014.800,0.000
282415.900,711459.300,711598.100,712056.800,711765.400,711765.300,712159.200,711969.200,0.000
282413.000,711415.800,711554.800,712013.400,711721.900,711721.900,712115.700,711925.600,0.000
282360.000,711370.100,711509.200,711967.800,711676.200,711676.400,712070.400,711880.200,0.000
282268.100,711322.500,711461.300,711919.800,711627.900,711628.500,712022.400,711832.000,0.000
282202.400,711278.500,711417.500,711876.200,711583.900,711584.600,711978.600,711788.400,0.000
282187.300,711238.300,711376.900,711835.600,711543.900,711544.300,711938.100,711747.900,0.000
282184.200,711198.500,711336.800,711795.600,711504.100,711504.400,711898.400,711707.800,0.000
282138.500,711160.800,711300.100,711758.400,711466.600,711467.100,711861.300,711670.900,0.000
282052.200,711121.700,711260.800,711719.400,711427.600,711428.000,711822.100,711631.800,0.000
281985.300,711081.700,711220.600,711679.100,711387.100,711387.700,711782.100,711591.400,0.000
281969.600,711047.800,711186.600,711645.000,711353.100,711353.500,711747.900,711557.400,0.000
281966.700,711016.200,711155.300,711613.500,711321.800,711322.200,711716.100,711525.700,0.000
281915.300,710981.600,711120.600,711578.600,711287.100,711287.400,711681.400,711491.000,0.000
281824.600,710947.100,711086.400,711543.800,711252.100,711252.800,711646.800,711456.500,0.000
281757.300,710912.300,711051.300,711508.900,711217.300,711217.900,711612.200,711421.400,0.000
281750.700,710884.500,711023.100,711481.200,711189.600,711190.000,711584.100,711393.400,0.000
281754.400,710857.400,710996.400,711454.400,711162.700,711163.200,711557.000,711366.800,0.000
281707.800,710825.600,710964.700,711422.600,711131.100,711131.400,711525.400,711335.200,0.000
281620.400,710789.300,710928.200,711385.900,711094.800,711095.200,711489.100,711299.100,0.000
281564.400,710759.900,710898.600,711356.600,711065.300,711066.100,711459.800,711270.000,0.000
281560.800,710735.300,710874.400,711332.100,711040.700,711041.100,711435.100,711245.100,0.000
281564.800,710708.900,710848.000,711305.700,711014.500,711014.700,711408.600,711218.600,0.000
281517.400,710681.700,710821.200,711278.500,710987.700,710987.800,711381.900,711191.600,0.000
281434.200,710653.000,710792.600,711250.000,710959.300,710958.900,711353.100,711163.100,0.000
281375.100,710625.600,710764.600,711222.400,710931.300,710931.300,711325.400,711135.400,0.000
281371.900,710604.100,710742.900,711200.200,710909.300,710909.900,711303.700,711113.800,0.000
281381.000,710584.600,710723.200,711180.800,710889.800,710890.200,711283.900,711094.300,0.000
281343.900,710559.900,710698.700,711156.800,710865.500,710865.800,711259.300,711069.800,0.000
281267.600,710536.500,710675.400,711133.400,710842.000,710842.400,711235.900,711046.200,0.000
281215.700,710513.900,710652.800,711110.600,710819.300,710819.600,711213.500,711023.900,0.000
281216.400,710494.800,710633.600,711091.600,710800.400,710800.600,711194.400,711004.600,0.000
281224.900,710475.100,710614.200,711072.100,710780.700,710780.900,711174.400,710985.100,0.000
281188.600,710455.700,710594.600,711052.600,710761.000,710761.400,711154.900,710965.500,0.000
281107.000,710432.700,710571.400,711029.500,710737.900,710738.500,711131.900,710942.300,0.000
281042.400,710410.300,710549.400,711007.300,710716.100,710716.500,711110.100,710920.100,0.000
281042.100,710393.600,710532.800,710990.600,710699.500,710700.100,711093.300,710903.500,0.000
281050.500,710380.100,710518.800,710976.400,710685.800,710685.800,711078.900,710889.500,0.000
281007.400,710359.400,710498.100,710955.800,710664.700,710665.100,711058.600,710868.800,0.000
280928.200,710336.300,710475.700,710933.400,710641.900,710642.800,711036.400,710846.600,0.000
280874.800,710316.900,710456.100,710914.300,710622.600,710623.500,711016.700,710827.400,0.000
280877.900,710303.600,710442.900,710900.800,710609.000,710609.800,711003.100,710813.600,0.000
280886.700,710290.400,710429.500,710887.300,710595.800,710596.300,710989.700,710800.200,0.000
280844.600,710272.900,710411.400,710869.400,710578.000,710578.400,710972.100,710782.800,0.000
280770.400,710252.200,710390.900,710848.700,710557.600,710557.900,710951.200,710762.400,0.000
280722.200,710236.600,710375.900,710833.400,710542.300,710542.300,710936.000,710747.000,0.000
280721.800,710224.100,710362.700,710820.400,710529.200,710529.400,710923.000,710733.800,0.000
280738.900,710213.100,710351.400,710809.100,710518.000,710518.300,710911.800,710722.500,0.000
280707.300,710198.800,710337.300,710795.300,710503.800,710503.900,710898.000,710708.300,0.000
280631.900,710179.900,710319.200,710776.900,710485.400,710485.600,710879.600,710690.000,0.000
280579.600,710162.700,710301.800,710759.300,710468.200,710468.400,710861.800,710672.300,0.000
280584.500,710149.900,710289.400,710746.500,710455.700,710456.100,710849.100,710660.000,0.000
280597.800,710138.900,710278.500,710735.400,710444.400,710445.100,710838.400,710649.100,0.000
280560.500,710124.600,710264.000,710721.300,710430.000,710430.600,710823.900,710634.400,0.000
280491.900,710109.600,710248.800,710706.200,710415.000,710415.200,710808.600,710619.300,0.000
280443.300,710095.000,710234.300,710691.600,710400.500,710400.900,710794.100,710604.800,0.000
280453.200,710086.700,710226.300,710683.500,710392.500,710392.900,710786.100,710596.700,0.000
280471.600,710077.300,710216.800,710674.100,710383.100,710383.600,710777.000,710587.400,0.000
280440.600,710065.400,710204.900,710662.100,710371.300,710371.600,710764.900,710575.500,0.000
280362.200,710047.400,710186.800,710643.600,710353.100,710353.500,710746.700,710557.400,0.000
280323.500,710037.000,710176.400,710633.300,710342.400,710342.900,710736.300,710546.900,0.000
280329.300,710028.900,710168.900,710625.600,710334.600,710335.100,710728.600,710538.800,0.000
280340.300,710019.400,710158.900,710615.900,710324.500,710325.400,710719.000,710529.000,0.000
280307.900,710008.000,710147.500,710604.800,710313.000,710314.000,710707.200,710517.800,0.000
280239.400,709995.700,710135.300,710592.500,710300.900,710301.800,710694.900,710505.700,0.000
280194.900,709984.700,710124.300,710581.300,710289.900,710290.600,710683.900,710494.500,0.000
280197.700,709976.200,710115.300,710572.600,710281.300,710281.800,710674.900,710485.600,0.000
280207.000,709965.800,710105.000,710562.200,710271.300,710271.700,710664.900,710475.400,0.000
280172.200,709953.100,710092.800,710549.600,710258.800,710259.000,710652.400,710463.000,0.000
280109.600,709941.100,710080.800,710537.300,710247.000,710246.900,710640.300,710451.100,0.000
280065.100,709932.800,710072.100,710529.000,710238.700,710238.700,710632.000,710442.400,0.000
280077.400,709925.600,710064.700,710522.200,710231.800,710231.800,710625.100,710435.400,0.000
280112.900,709921.400,710060.600,710517.600,710227.300,710227.500,710620.800,710431.100,0.000
280103.900,709916.800,710056.500,710512.900,710222.300,710222.900,710616.400,710426.400,0.000
280005.600,709894.900,710034.600,710491.400,710200.700,710201.100,710594.400,710404.600,0.000
279939.000,709880.200,710020.000,710476.600,710185.900,710186.500,710579.500,710390.100,0.000
279955.100,709878.400,710018.100,710474.400,710183.700,710184.600,710577.300,710388.300,0.000
279979.100,709872.300,710011.700,710468.200,710177.200,710178.200,710571.200,710381.800,0.000
279951.500,709862.000,710001.300,710458.200,710167.000,710167.800,710560.900,710371.100,0.000
279893.800,709854.400,709993.900,710450.700,710159.500,710160.400,710553.100,710363.600,0.000
279836.000,709840.800,709980.500,710437.400,710146.200,710146.900,710540.200,710350.600,0.000
279844.000,709834.100,709973.100,710430.600,710139.200,710140.000,710533.200,710343.800,0.000
279862.800,709827.400,709966.600,710424.100,710133.000,710133.400,710526.400,710337.300,0.000
279816.500,709814.100,709953.100,710410.600,710119.300,710120.100,710513.100,710323.800,0.000
279727.900,709799.400,709938.300,710395.300,710104.500,710104.800,710498.100,710308.700,0.000
279703.800,709795.600,709934.900,710392.100,710100.800,710101.200,710494.300,710305.100,0.000
279727.900,709796.600,709935.900,710393.400,710101.600,710102.600,710495.300,710306.300,0.000
279749.300,709792.600,709931.800,710388.900,710097.300,710098.300,710491.400,710302.300,0.000
279721.300,709783.200,709922.600,710379.700,710088.400,710089.600,710482.400,710292.900,0.000
279656.000,709774.600,709914.100,710371.400,710079.800,710081.100,710473.800,710284.000,0.000
279587.900,709758.600,709898.100,710355.100,710063.400,710064.400,710457.800,710268.200,0.000
279598.700,709753.300,709892.600,710350.000,710058.600,710059.200,710452.400,710263.000,0.000
279621.500,709752.300,709891.900,710349.300,710057.600,710058.700,710451.800,710262.300,0.000
279588.900,709745.100,709884.600,710342.300,710050.500,710051.300,710444.700,710255.600,0.000
279513.600,709734.600,709874.200,710332.100,710040.600,710041.100,710434.900,710245.400,0.000
279480.900,709727.600,709866.900,710324.900,710033.400,710034.100,710427.800,710238.000,0.000
279482.900,709723.700,709862.800,710320.500,710029.100,710029.900,710423.500,710233.700,0.000
279491.800,709718.700,709858.300,710315.800,710024.100,710025.400,710418.900,710229.500,0.000
279469.600,709713.900,709853.600,710310.700,710019.600,710020.800,710414.100,710224.800,0.000
279391.100,709700.300,709839.300,710296.600,710005.600,710006.400,710400.000,710210.100,0.000
279335.800,709690.800,709829.800,710287.400,709996.300,709996.700,710390.100,710200.900,0.000
279344.900,709689.800,709828.800,710286.400,709995.000,709995.300,710389.300,710199.600,0.000
279367.800,709689.400,709828.400,710286.300,709995.000,709995.100,710388.900,710199.300,0.000
279340.400,709679.800,709818.800,710276.500,709985.300,709986.000,710379.100,710189.700,0.000
279274.900,709671.600,709810.600,710268.300,709977.300,709978.300,710371.400,710181.800,0.000
279224.400,709665.600,709804.600,710262.200,709971.200,709971.800,710365.100,710175.400,0.000
279221.200,709657.200,709796.800,710253.800,709962.900,709963.300,710356.300,710167.300,0.000
279244.000,709654.900,709794.300,710251.300,709960.600,709961.100,710354.200,710165.400,0.000
279213.600,709649.100,709788.300,710245.500,709954.600,709955.400,710348.800,710159.800,0.000
279146.800,709640.000,709779.300,710236.800,709945.400,709946.100,710339.400,710150.200,0.000
279101.300,709631.400,709771.000,710228.300,709937.100,709937.800,710331.100,710141.600,0.000
279109.200,709628.100,709767.700,710224.800,709933.800,709934.200,710327.800,710137.800,0.000
279133.300,709627.100,709766.600,710223.900,709932.800,709933.100,710326.700,710137.100,0.000
279101.000,709620.800,709759.800,710217.600,709926.100,709927.000,710320.100,710130.500,0.000
279037.200,709614.800,709754.400,710211.600,709920.100,709921.400,710314.100,710124.600,0.000
278985.800,709607.400,709746.900,710204.200,709912.800,709913.600,710306.600,710117.200,0.000
279003.300,709605.300,709744.600,710201.900,709911.000,709911.900,710304.600,710115.100,0.000
279028.800,709603.200,709742.500,710199.600,709908.800,709909.700,710302.300,710112.600,0.000
279005.600,709598.400,709737.700,710194.900,709904.100,709904.600,710297.500,710108.400,0.000
278934.400,709588.900,709728.000,710185.900,709894.500,709895.300,710288.300,710098.900,0.000
278884.800,709580.800,709719.700,710177.600,709886.500,709886.900,710280.200,710090.400,0.000
278904.000,709578.100,709717.800,710175.100,709884.600,709884.400,710277.600,710088.100,0.000
278926.200,709577.200,709716.900,710174.300,709883.700,709883.800,710277.100,710087.700,0.000
278901.000,709572.200,709711.600,710169.400,709878.300,709878.800,710271.900,710082.300,0.000
278832.800,709563.400,709702.400,710160.400,709869.200,709869.900,710262.600,710073.200,0.000
278791.200,709556.800,709696.100,710153.700,709862.400,709863.100,710255.700,710066.900,0.000
278801.600,709555.300,709694.500,710151.700,709860.100,709861.100,710254.200,710065.400,0.000
278829.200,709557.500,709696.900,710154.400,709862.900,709864.000,710257.200,710067.400,0.000
278803.000,709551.700,709691.100,710148.400,709857.300,709858.400,710251.600,710061.600,0.000
278724.600,709541.500,709680.500,710137.800,709846.800,709847.900,710240.900,710051.300,0.000
278683.300,709535.800,709674.900,710131.900,709841.600,709842.400,710235.100,710045.800,0.000
278703.500,709535.700,709674.700,710132.200,709841.600,709842.100,710235.100,710045.700,0.000
278734.900,709535.600,709675.500,710132.200,709841.300,709842.000,710235.500,710045.800,0.000
278709.200,709530.700,709670.100,710127.200,709836.100,709836.800,710230.200,710040.700,0.000
278635.500,709520.500,709659.700,710117.100,709826.000,709826.500,710220.100,710030.600,0.000
278596.000,709516.000,709655.100,710113.000,709821.600,709821.900,710215.400,710026.400,0.000
278611.300,709513.800,709652.800,710110.400,709819.400,709819.800,710213.100,710023.900,0.000
278644.100,709515.300,709654.800,710112.300,709821.200,709821.600,710215.100,710025.600,0.000
278618.600,709510.900,709649.900,710107.400,709816.700,709816.900,710210.400,710021.000,0.000
278539.300,709501.300,709640.100,710097.800,709806.800,709807.300,710200.400,710011.000,0.000
278488.600,709494.600,709633.800,710091.300,709800.300,709800.900,710193.800,710004.700,0.000
278503.700,709494.100,709633.100,710090.300,709799.800,709800.300,710193.100,710003.800,0.000
278530.700,709496.200,709635.200,710092.300,709801.300,709801.700,710194.900,710005.800,0.000
278508.400,709490.300,709629.800,710086.700,709795.400,709796.100,710189.500,709999.800,0.000
278459.200,709483.800,709623.300,710080.400,709789.300,709789.600,710183.200,709993.400,0.000
278412.400,709476.700,709616.100,710073.200,709782.200,709783.200,710176.200,709986.500,0.000
278417.900,709475.500,709614.600,710072.100,709780.900,709781.900,710174.800,709984.800,0.000
278445.900,709477.800,709616.900,710074.300,709783.300,709783.800,710176.800,709987.000,0.000
278421.800,709474.700,709614.400,710071.100,709780.100,709780.800,710173.800,709984.300,0.000
278353.500,709466.200,709606.100,710062.800,709771.800,709772.400,710165.500,709976.400,0.000
278314.400,709458.900,709598.800,710055.500,709764.500,709765.300,710158.400,709969.100,0.000
278328.500,709458.800,709598.600,710055.600,709764.300,709765.200,710158.400,709968.700,0.000
278355.300,709460.100,709599.400,710056.300,709765.600,709766.200,710159.100,709969.500,0.000
278325.600,709453.700,709593.000,710050.100,709759.400,709759.800,710152.600,709963.500,0.000
278256.100,709444.300,709584.100,710041.000,709750.400,709750.400,710143.800,709954.600,0.000
278221.400,709442.400,709582.000,710038.800,709748.400,709748.200,710141.600,709952.300,0.000
278230.900,709440.000,709579.800,710037.000,709746.000,709746.100,710139.400,709949.900,0.000
278251.900,709439.800,709579.900,710036.600,709745.900,709746.300,710139.400,709949.800,0.000
278244.100,709441.600,709581.300,710038.100,709747.500,709747.900,710141.000,709951.600,0.000
278181.200,709433.400,709573.100,710030.000,709739.400,709739.700,710132.800,709943.800,0.000
278114.500,709419.600,709559.400,710016.400,709725.700,709726.300,710119.300,709930.300,0.000
278139.800,709422.800,709562.600,710019.800,709728.600,709729.300,710122.600,709933.400,0.000
278167.300,709425.700,709565.600,710022.300,709731.400,709732.000,710125.300,709935.900,0.000
278143.300,709422.400,709561.900,710018.500,709727.600,709728.300,710121.800,709931.900,0.000
278071.700,709410.900,709551.300,710007.800,709716.900,709717.400,710110.600,709921.100,0.000
278046.300,709410.100,709550.600,710006.900,709716.100,709716.800,710109.800,709920.400,0.000
278055.400,709411.100,709551.100,710007.900,709717.000,709717.400,710110.700,709921.200,0.000
278072.100,709408.800,709548.500,710005.300,709714.700,709715.200,710108.300,709918.600,0.000
278051.100,709405.500,709544.800,710001.800,709711.100,709711.600,710104.900,709915.300,0.000
277990.300,709399.900,709539.400,709996.100,709705.500,709705.900,710099.300,709909.600,0.000
277952.100,709395.100,709535.100,709991.600,709700.600,709701.400,710094.400,709904.800,0.000
277969.300,709394.400,709534.300,709991.100,709700.200,709700.600,710093.400,709904.300,0.000
277994.800,709396.100,709535.500,709992.600,709701.400,709702.200,710095.200,709905.300,0.000
277977.000,709393.700,709533.600,709990.600,709699.200,709699.900,710093.100,709903.300,0.000
277909.600,709385.700,709525.600,709982.300,709691.000,709691.800,710084.900,709895.300,0.000
277870.800,709381.300,709521.100,709978.100,709687.100,709687.500,710081.200,709891.500,0.000
277885.500,709380.300,709520.100,709976.900,709686.100,709686.500,710080.000,709890.400,0.000
277910.700,709382.300,709522.000,709979.100,709687.900,709688.700,710082.100,709892.100,0.000
277885.200,709377.400,709516.900,709974.400,709683.200,709684.100,710077.100,709887.300,0.000
277817.100,709366.700,709506.200,709963.100,709672.200,709673.100,710066.100,709876.400,0.000
277782.200,709364.300,709503.700,709960.400,709669.900,709670.100,710063.600,709874.000,0.000
277806.500,709365.800,709504.700,709962.000,709671.300,709671.900,710065.000,709875.500,0.000
277832.600,709367.600,709507.100,709964.100,709673.400,709674.400,710067.400,709877.700,0.000
277807.500,709364.600,709504.100,709961.100,709670.300,709670.900,710064.300,709874.400,0.000
277742.900,709355.400,709495.200,709952.100,709660.900,709661.600,710054.700,709865.500,0.000
277706.700,709350.000,709489.900,709947.100,709655.700,709656.600,710049.600,709859.800,0.000
277735.300,709355.100,709495.400,709952.400,709661.100,709661.900,710054.900,709865.300,0.000
277754.300,709355.700,709495.400,709952.300,709661.500,709662.200,710055.600,709865.900,0.000
277728.200,709350.400,709489.900,709947.100,709656.200,709656.800,710050.100,709860.900,0.000
277669.800,709343.600,709483.400,709940.700,709649.500,709649.900,710043.100,709854.100,0.000
277627.700,709340.400,709480.300,709937.600,709646.600,709646.800,710040.100,709851.000,0.000
277654.200,709344.600,709484.800,709941.800,709651.000,709651.100,710044.700,709855.100,0.000
277677.100,709343.000,709483.200,709940.400,709649.500,709650.100,710043.100,709854.100,0.000
277651.200,709339.900,709479.900,709937.100,709646.100,709646.900,710039.800,709850.600,0.000
277597.300,709333.600,709473.900,709931.100,709640.100,709640.900,710033.900,709844.100,0.000
277562.500,709330.900,709471.300,709928.400,709637.300,709638.100,710031.200,709841.600,0.000
277579.700,709333.900,709474.100,709931.100,709640.000,709640.800,710033.800,709844.300,0.000
277611.100,709335.400,709475.300,709932.300,709641.400,709642.400,710035.100,709845.800,0.000
277585.800,709329.600,709469.900,709926.700,709635.800,709636.400,710029.400,709840.200,0.000
277532.900,709325.300,709465.900,709923.000,709631.800,709632.300,710025.400,709836.200,0.000
277487.200,709321.300,709462.000,709919.100,709627.800,709628.100,710021.400,709832.300,0.000
277500.100,709322.000,709462.600,709919.600,709628.700,709628.900,710022.300,709832.600,0.000
277529.400,709324.400,709464.300,709921.700,709630.800,709630.800,710024.600,709834.500,0.000
277504.600,709314.600,709454.800,709911.800,709621.100,709621.200,710014.600,709825.100,0.000
277448.600,709310.100,709450.800,709907.400,709616.500,709616.900,710010.100,709821.100,0.000
277413.800,709310.400,709450.900,709907.600,709616.600,709617.300,710010.000,709821.300,0.000
277428.600,709311.100,709451.200,709908.700,709617.400,709617.800,710011.000,709821.900,0.000
277460.700,709314.300,709454.300,709911.900,709620.600,709621.100,710014.400,709824.800,0.000
277445.900,709312.400,709452.600,709909.700,709618.600,709619.100,710012.500,709822.700,0.000
277366.200,709301.000,709441.600,709897.900,709607.100,709607.800,710000.900,709811.500,0.000
277327.300,709299.400,709439.800,709896.400,709605.200,709605.600,709998.800,709809.800,0.000
277349.000,709303.700,709444.300,709900.900,709609.900,709610.000,710003.400,709813.900,0.000
277385.300,709305.600,709445.800,709903.100,709611.700,709612.100,710005.300,709816.000,0.000
277360.200,709302.800,709443.100,709899.800,709608.400,709609.200,710002.300,709813.000,0.000
277290.700,709295.600,709436.200,709892.700,709601.700,709602.300,709995.500,709806.100,0.000
277247.800,709290.100,709431.100,709887.500,709596.700,709597.200,709990.100,709800.900,0.000
277262.300,709293.400,709434.200,709890.800,709600.300,709600.100,709993.000,709804.200,0.000
277287.500,709292.100,709432.900,709889.200,709599.000,709598.800,709992.100,709803.000,0.000
277261.700,709281.100,709421.700,709878.400,709587.800,709587.800,709981.200,709792.000,0.000
277197.700,709270.600,709410.900,709868.000,709577.200,709577.300,709970.600,709781.300,0.000
277155.500,709265.700,709406.500,709863.400,709572.600,709572.800,709965.600,709776.800,0.000
277161.500,709265.700,709406.700,709863.600,709572.900,709572.700,709966.000,709776.800,0.000
277205.700,709273.800,709414.800,709871.100,709580.600,709580.700,709974.100,709784.500,0.000
277184.700,709271.300,709411.900,709868.400,709577.900,709578.000,709971.100,709782.000,0.000
277125.200,709266.500,709407.400,709863.800,709573.300,709573.500,709966.600,709777.700,0.000
277092.200,709266.100,709407.000,709863.400,709572.800,709573.500,709966.600,709777.300,0.000
277125.900,709272.800,709413.400,709870.300,709579.400,709579.800,709973.300,709784.000,0.000
277170.900,709280.200,709420.500,709877.900,709587.100,709587.100,709980.100,709790.900,0.000
277145.600,709274.900,709415.700,709872.900,709581.900,709582.200,709975.200,709786.000,0.000
277081.100,709266.900,709407.600,709864.400,709573.800,709574.100,709967.000,709777.700,0.000
277049.500,709267.900,709408.200,709865.400,709574.700,709575.000,709967.600,709778.700,0.000
277070.500,709275.100,709415.400,709872.600,709581.900,709582.400,709975.300,709786.200,0.000
277085.600,709272.300,709413.000,709869.900,709579.300,709579.800,709972.800,709783.600,0.000
277059.200,709268.000,709409.200,709866.300,709575.300,709575.500,709968.400,709779.500,0.000
276993.700,709256.600,709398.300,709855.100,709564.300,709564.300,709957.500,709768.300,0.000
276945.100,709243.600,709384.800,709841.600,709550.700,709550.600,709944.400,709754.800,0.000
276967.400,709248.000,709389.000,709846.100,709555.400,709555.300,709948.900,709759.300,0.000
277021.600,709260.300,709401.800,709858.400,709567.600,709567.900,709961.300,709771.400,0.000
277020.700,709270.900,709412.900,709869.400,709578.600,709578.800,709972.300,709782.400,0.000
276957.900,709275.400,709416.800,709874.100,709583.100,709583.000,709976.800,709787.100,0.000
276921.400,709274.900,709416.100,709873.400,709582.600,709582.400,709975.500,709786.500,0.000
276928.200,709278.400,709419.600,709876.900,709586.300,709586.000,709979.100,709790.400,0.000
276947.800,709278.600,709420.200,709877.600,709586.800,709586.800,709979.900,709791.100,0.000
276908.400,709261.800,709403.200,709860.500,709569.700,709569.700,709963.100,709773.800,0.000
276855.800,709248.400,709389.600,709847.200,709556.400,709556.400,709949.800,709760.600,0.000
276802.400,709227.900,709369.200,709826.500,709535.600,709535.800,709928.600,709739.800,0.000
276802.600,709199.300,709341.100,709798.100,709507.400,709507.800,709900.100,709711.600,0.000
276877.200,709221.900,709363.300,709820.400,709529.600,709529.700,709922.600,709733.400,0.000
276869.600,709238.100,709379.900,709837.100,709546.300,709546.300,709939.300,709750.100,0.000
276807.700,709240.100,709381.900,709838.900,709547.900,709548.000,709941.100,709752.300,0.000
276770.900,709243.100,709384.700,709841.400,709550.700,709550.900,709944.300,709755.200,0.000
276759.600,709222.800,709364.800,709821.300,709530.600,709531.200,709924.300,709735.100,0.000
276790.400,709210.100,709351.900,709808.600,709517.600,709518.500,709911.300,709722.400,0.000
276796.300,709216.500,709358.200,709815.100,709524.100,709525.100,709917.600,709728.600,0.000
276738.800,709218.400,709360.100,709817.300,709526.500,709527.000,709919.700,709730.900,0.000
276711.100,709220.300,709362.100,709819.600,709528.600,709529.200,709921.800,709733.100,0.000
276714.300,709223.800,709365.600,709822.900,709532.300,709532.600,709925.700,709736.700,0.000
276737.300,709223.900,709365.400,709822.500,709532.300,709532.400,709925.500,709736.400,0.000
276712.900,709217.500,709359.400,709816.400,709526.100,709526.500,709919.100,709730.400,0.000
276657.300,709216.400,709358.200,709815.500,709524.600,709525.300,709918.000,709729.300,0.000
276628.400,709213.800,709355.300,709812.700,709521.600,709522.300,709915.400,709726.700,0.000
276637.400,709211.400,709353.300,709810.400,709519.500,709520.100,709913.300,709724.300,0.000
276658.900,709212.100,709354.000,709811.100,709520.100,709520.500,709913.700,709724.800,0.000
276654.200,709212.300,709354.400,709811.500,709520.900,709520.700,709914.100,709724.900,0.000
276594.300,709210.900,709352.900,709810.000,709519.400,709519.500,709912.700,709723.800,0.000
276551.300,709208.600,709350.400,709807.900,709516.600,709517.400,709910.400,709721.600,0.000
276569.200,709206.400,709348.400,709805.500,709514.500,709514.900,709908.200,709719.400,0.000
276611.000,709212.100,709353.900,709811.300,709520.300,709520.800,709913.900,709725.100,0.000
276602.000,709213.400,709355.700,709812.900,709522.100,709522.800,709915.500,709726.900,0.000
276545.300,709205.100,709347.300,709804.600,709513.800,709513.900,709907.400,709718.200,0.000
276510.200,709203.800,709345.900,709803.400,709512.300,709512.400,709905.900,709716.900,0.000
276529.100,709204.300,709347.100,709803.800,709513.100,709513.400,709906.800,709717.400,0.000
276552.600,709204.800,709347.800,709804.600,709514.100,709514.600,709907.500,709718.200,0.000
276536.600,709207.400,709350.400,709807.100,709516.400,709516.800,709909.900,709720.800,0.000
276476.400,709200.900,709343.600,709800.100,709509.400,709509.900,709903.600,709714.100,0.000
276443.100,709200.100,709343.000,709799.200,709508.800,709509.100,709902.700,709713.100,0.000
276460.400,709197.800,709341.100,709797.200,709506.600,709507.400,709900.400,709710.800,0.000
276482.400,709191.900,709335.400,709791.800,709501.000,709502.000,709894.900,709705.600,0.000
276450.400,709187.400,709330.900,709787.000,709496.600,709497.300,709890.400,709701.200,0.000
276401.200,709185.400,709329.000,709785.500,709495.200,709495.100,709888.600,709699.300,0.000
276393.100,709190.400,709334.300,709790.600,709500.300,709500.600,709893.500,709704.600,0.000
276434.400,709199.500,709343.200,709799.400,709509.100,709509.700,709902.300,709713.300,0.000
276469.100,709205.700,709349.400,709805.700,709515.100,709516.100,709908.500,709719.300,0.000
276464.000,709210.900,709354.400,709811.100,709520.500,709520.900,709913.800,709724.900,0.000
276401.800,709208.100,709351.900,709808.800,709517.900,709518.400,709911.400,709722.400,0.000
276356.700,709199.800,709343.900,709800.500,709509.600,709509.900,709903.100,709714.300,0.000
276364.400,709192.900,709337.200,709793.600,709502.800,709503.100,709896.300,709707.600,0.000
276378.100,709178.100,709322.400,709778.800,709488.100,709488.600,709881.400,709692.600,0.000
276374.700,709179.600,709324.500,709780.400,709490.000,709490.400,709882.900,709694.000,0.000
276316.600,709180.900,709326.000,709781.600,709491.200,709491.700,709884.600,709696.000,0.000
276274.100,709176.700,709321.800,709777.300,709486.900,709487.500,709880.600,709691.700,0.000
276291.200,709176.400,709320.900,709777.400,709486.300,709486.900,709880.400,709691.100,0.000
276326.600,709179.100,709323.400,709780.300,709489.400,709489.800,709883.200,709693.400,0.000
276310.800,709175.900,709320.700,709776.900,709486.800,709486.900,709879.600,709690.600,0.000
276256.000,709170.200,709314.900,709771.300,709481.100,709481.300,709874.100,709685.400,0.000
276221.300,709170.000,709314.900,709771.300,709481.100,709481.100,709874.000,709684.800,0.000
276245.500,709176.700,709321.600,709778.500,709488.200,709488.200,709881.300,709691.500,0.000
276283.100,709180.800,709325.400,709782.700,709492.100,709492.500,709885.300,709696.000,0.000
276262.200,709176.200,709321.100,709777.600,709487.100,709487.900,709880.500,709691.400,0.000
276201.000,709167.300,709312.000,709768.600,709477.800,709478.600,709871.400,709682.100,0.000
276176.000,709168.300,709313.300,709770.100,709479.000,709479.900,709872.100,709683.300,0.000
276199.600,709170.100,709315.900,709772.600,709481.400,709482.400,709874.400,709685.600,0.000
276221.900,709171.200,709317.100,709773.700,709482.800,709482.900,709875.900,709687.100,0.000
276231.900,709178.500,709323.700,709780.500,709490.000,709489.900,709882.900,709693.700,0.000
276185.200,709175.300,709320.600,709777.100,709487.100,709487.100,709880.000,709690.600,0.000
276140.700,709171.300,709316.900,709773.500,709483.000,709483.600,709876.400,709687.100,0.000
276164.800,709175.400,709321.400,709777.700,709487.300,709488.200,709880.800,709691.400,0.000
276203.800,709178.500,709324.400,709780.800,709490.400,709491.200,709883.800,709694.500,0.000
276185.200,709172.000,709317.800,709774.100,709483.800,709484.300,709877.400,709688.200,0.000
276124.000,709162.400,709308.300,709765.300,709474.400,709474.800,709868.200,709679.100,0.000
276091.600,709164.800,709311.100,709767.900,709476.900,709477.500,709870.400,709681.000,0.000
276132.100,709177.600,709324.100,709780.800,709489.900,709490.700,709883.500,709694.100,0.000
276167.300,709182.500,709329.300,709785.400,709495.200,709496.000,709888.300,709699.100,0.000
276134.500,709176.000,709322.400,709778.900,709488.500,709489.200,709881.900,709692.600,0.000
276057.300,709155.100,709301.300,709757.700,709467.400,709467.600,709860.700,709671.400,0.000
276020.900,709147.700,709293.900,709750.100,709460.400,709460.600,709853.400,709664.300,0.000
276059.300,709154.600,709301.000,709757.300,709467.500,709467.500,709860.300,709671.100,0.000
276112.000,709165.300,709311.900,709768.400,709478.000,709478.200,709870.800,709682.300,0.000
276097.200,709164.600,709311.400,709767.700,709477.300,709477.900,709870.000,709681.500,0.000
276023.800,709159.400,709306.600,709762.600,709472.100,709472.900,709865.100,709676.700,0.000
275979.600,709153.800,709300.800,709757.100,709466.400,709467.300,709859.500,709670.900,0.000
276003.800,709155.400,709302.300,709758.900,709468.300,709468.900,709861.500,709672.600,0.000
276048.300,709161.800,709308.800,709765.100,709474.800,709475.300,709868.000,709679.200,0.000
276035.700,709162.300,709309.700,709765.600,709475.300,709475.900,709868.600,709679.600,0.000
275977.500,709157.300,709305.300,709761.400,709470.700,709471.400,709864.300,709675.300,0.000
275940.600,709152.100,709299.500,709755.600,709465.100,709465.700,709858.600,709669.700,0.000
275966.800,709155.700,709303.700,709759.300,709468.900,709469.500,709862.400,709673.800,0.000
276011.700,709166.200,709314.100,709770.100,709479.800,709480.000,709872.900,709684.400,0.000
275997.200,709171.300,709319.100,709775.600,709485.200,709485.000,709878.100,709689.400,0.000
275931.200,709169.100,709317.100,709772.900,709482.700,709482.800,709875.700,709686.800,0.000
275884.300,709159.400,709307.500,709763.800,709473.300,709473.600,709866.300,709677.600,0.000
275899.900,709151.000,709298.900,709755.400,709464.900,709465.500,709858.300,709669.200,0.000
275942.500,709161.300,709310.100,709766.400,709475.500,709476.100,709869.000,709679.800,0.000
275925.000,709166.200,709314.900,709771.400,709480.400,709481.100,709874.000,709684.800,0.000
275857.600,709163.600,709312.000,709768.800,709478.000,709478.900,709871.700,709682.500,0.000
275817.200,709151.100,709300.300,709756.700,709466.200,709466.600,709859.400,709670.300,0.000
275846.000,709140.700,709289.800,709746.300,709455.700,709456.200,709848.500,709659.400,0.000
275893.100,709143.100,709292.300,709748.900,709458.500,709458.500,709851.600,709662.400,0.000
275878.800,709147.100,709295.600,709752.800,709462.400,709462.400,709855.300,709666.300,0.000
275836.200,709158.100,709306.800,709763.700,709472.900,709473.200,709866.300,709677.300,0.000
275798.500,709158.600,709307.100,709764.100,709473.400,709474.000,709866.700,709678.100,0.000
275813.700,709163.800,709312.400,709769.700,709478.800,709479.300,709872.100,709683.500,0.000
275837.000,709164.800,709313.300,709769.900,709479.200,709479.600,709873.200,709683.900,0.000
275805.000,709149.400,709298.500,709755.600,709464.900,709465.300,709858.400,709669.200,0.000
275743.700,709136.200,709285.400,709742.600,709452.100,709452.600,709845.300,709656.100,0.000
275704.100,709127.800,709277.500,709734.200,709443.400,709443.900,709836.800,709647.400,0.000
275743.600,709130.800,709280.000,709736.900,709446.400,709446.600,709839.900,709650.600,0.000
275801.100,709143.600,709293.400,709749.900,709459.400,709459.600,709852.900,709663.700,0.000
275774.900,709137.100,709286.900,709743.400,709452.700,709453.000,709846.400,709657.300,0.000
275700.200,709121.400,709271.900,709728.400,709437.500,709437.700,709831.300,709642.100,0.000
275673.700,709118.300,709269.500,709726.200,709435.400,709435.800,709828.900,709639.900,0.000
275714.900,709124.700,709276.900,709733.600,709443.000,709443.300,709836.100,709647.400,0.000
275773.300,709133.400,709286.500,709743.300,709452.600,709452.700,709845.800,709657.100,0.000
275769.400,709138.800,709292.800,709749.800,709459.000,709459.100,709852.400,709663.400,0.000
275708.300,709135.900,709291.200,709748.200,709457.300,709457.600,709851.100,709662.200,0.000
275675.100,709128.900,709286.100,709742.700,709451.800,709452.300,709845.700,709656.600,0.000
275709.100,709128.400,709286.500,709743.000,709452.300,709452.600,709846.200,709657.200,0.000
275744.500,709128.400,709287.300,709743.600,709452.800,709453.300,709846.900,709657.600,0.000
275716.700,709125.100,709284.800,709741.100,709450.500,709450.600,709844.700,709655.100,0.000
275645.600,709117.500,709278.200,709734.900,709444.100,709444.100,709838.000,709648.600,0.000
275604.000,709104.100,709266.100,709723.000,709432.000,709432.300,709826.000,709636.600,0.000
275653.200,709109.300,709272.300,709728.800,709438.100,709438.400,709832.100,709642.800,0.000
275718.300,709121.800,709285.400,709742.200,709451.900,709452.000,709845.500,709656.100,0.000
275699.800,709119.900,709284.600,709741.500,709450.800,709451.000,709844.300,709655.400,0.000
275660.800,709121.800,709288.200,709744.800,709453.900,709453.900,709847.600,709658.600,0.000
275653.300,709125.100,709292.600,709749.200,709458.300,709458.900,709852.200,709663.200,0.000
275682.700,709128.300,709296.400,709753.100,709461.800,709462.400,709856.100,709666.900,0.000
275713.200,709130.900,709299.300,709755.600,709464.800,709465.100,709858.600,709669.600,0.000
275690.900,709128.700,709298.100,709754.600,709463.400,709464.200,709857.300,709668.600,0.000
275624.600,709119.400,709289.800,709746.500,709455.400,709455.700,709849.400,709660.600,0.000
275593.300,709111.800,709283.800,709740.300,709449.100,709449.600,709843.400,709654.600,0.000
275638.000,709123.000,709296.100,709752.900,709461.500,709461.900,709855.800,709666.600,0.000
275684.300,709133.100,709307.000,709763.800,709472.200,709472.500,709866.500,709677.400,0.000
275656.600,709123.900,709298.800,709755.400,709464.200,709464.200,709858.200,709669.400,0.000
275572.300,709108.800,709285.100,709741.900,709450.800,709450.600,709844.900,709656.000,0.000
275535.200,709093.400,709271.600,709728.200,709436.400,709436.700,709831.100,709641.900,0.000
275577.900,709095.600,709274.600,709731.100,709439.600,709439.800,709834.100,709644.700,0.000
275616.200,709101.400,709281.100,709737.500,709446.400,709446.400,709840.800,709651.000,0.000
275588.300,709101.200,709282.100,709738.400,709447.000,709447.300,709841.600,709652.000,0.000
275517.800,709091.100,709272.900,709729.400,709438.500,709438.600,709832.500,709643.400,0.000
275483.100,709085.600,709268.700,709725.300,709433.900,709434.100,709828.100,709639.300,0.000
275520.200,709088.800,709273.000,709729.800,709437.700,709438.100,709832.500,709643.500,0.000
275565.000,709098.100,709283.500,709740.100,709448.100,709448.500,709842.800,709653.800,0.000
275525.100,709093.100,709279.300,709735.900,709444.500,709444.500,709838.800,709649.700,0.000
275453.500,709087.600,709275.300,709731.900,709440.000,709440.100,709834.400,709645.500,0.000
275431.700,709086.900,709275.900,709732.600,709440.600,709440.800,709834.800,709646.200,0.000
275462.700,709086.900,709276.800,709733.400,709441.600,709441.600,709835.800,709647.000,0.000
275505.900,709088.600,709279.800,709736.400,709444.400,709444.100,709838.600,709649.900,0.000
275506.700,709091.800,709284.000,709740.200,709448.100,709448.300,709842.900,709654.100,0.000
275445.800,709085.100,709278.600,709734.800,709443.000,709443.100,709837.700,709649.300,0.000
275398.400,709075.000,709270.900,709726.600,709434.800,709434.900,709829.400,709640.800,0.000
275423.700,709080.300,709276.700,709732.800,709440.600,709441.100,709835.500,709646.600,0.000
275467.900,709083.800,709280.200,709736.300,709444.100,709444.500,709839.100,709650.500,0.000
275453.500,709072.800,709270.100,709726.600,709433.800,709434.400,709828.900,709640.300,0.000
275394.100,709063.000,709261.400,709718.100,709425.700,709425.900,709820.600,709632.100,0.000
275354.200,709059.800,709260.300,709716.100,709424.100,709424.000,709818.900,709630.600,0.000
275399.200,709067.400,709269.000,709724.900,709432.400,709432.600,709827.900,709639.300,0.000
275430.000,709066.700,709269.000,709724.800,709432.300,709432.800,709828.300,709639.100,0.000
275407.700,709066.300,709269.300,709725.100,709432.300,709433.300,709828.100,709638.900,0.000
275327.800,709060.500,709265.100,709720.900,709428.300,709429.500,709824.200,709635.100,0.000
275287.800,709056.600,709262.800,709718.600,709426.300,709426.900,709821.900,709632.800,0.000
275318.300,709059.000,709266.600,709722.600,709430.200,709430.300,709825.600,709636.400,0.000
275360.000,709064.900,709273.200,709729.100,709436.900,709437.300,709832.700,709643.400,0.000
275337.200,709066.100,709274.900,709730.600,709438.500,709438.900,709834.400,709645.100,0.000
275274.100,709060.100,709270.800,709726.700,709433.900,709434.400,709829.800,709640.800,0.000
275256.100,709059.300,709271.800,709727.600,709434.800,709435.000,709831.000,709641.600,0.000
275283.800,709055.400,709268.800,709724.900,709432.100,709432.100,709828.300,709638.900,0.000
275312.500,709051.800,709265.900,709721.800,709429.300,709429.600,709824.800,709636.400,0.000
275283.300,709051.200,709266.200,709722.400,709429.800,709429.800,709825.200,709636.400,0.000
275201.600,709046.300,709262.600,709719.400,709426.600,709426.400,709822.500,709633.400,0.000
275156.600,709037.900,709255.800,709712.400,709419.600,709419.800,709815.600,709626.700,0.000
275181.800,709033.400,709252.100,709708.700,709415.700,709416.300,709812.100,709623.100,0.000
275239.200,709038.100,709257.600,709714.100,709421.300,709421.900,709817.400,709628.400,0.000
275239.000,709039.100,709259.400,709716.000,709423.100,709423.500,709819.400,709630.600,0.000
275168.800,709031.400,709253.400,709709.900,709416.900,709416.900,709812.900,709624.400,0.000
275128.800,709033.300,709257.000,709713.800,709420.800,709420.900,709816.700,709627.800,0.000
275170.000,709038.900,709264.200,709720.900,709427.700,709427.800,709823.800,709634.700,0.000
275210.400,709037.100,709263.300,709719.900,709426.600,709426.900,709822.900,709633.900,0.000
275181.100,709029.400,709256.800,709713.300,709420.400,709420.500,709816.200,709627.100,0.000
275093.500,709017.700,709246.800,709703.600,709410.500,709410.300,709806.400,709617.300,0.000
275060.100,709014.600,709245.100,709701.900,709408.800,709408.800,709805.200,709615.700,0.000
275114.000,709022.100,709254.100,709710.300,709416.900,709417.100,709813.600,709624.300,0.000
275160.400,709027.100,709259.700,709716.100,709422.700,709422.700,709818.900,709629.800,0.000
275148.800,709029.000,709262.900,709719.300,709425.900,709426.100,709822.100,709632.700,0.000
275073.500,709024.400,709259.900,709716.100,709422.600,709422.800,709819.300,709629.900,0.000
275026.300,709018.400,709255.900,709711.900,709418.800,709418.800,709815.300,709625.900,0.000
275058.900,709018.600,709257.000,709713.200,709420.400,709419.900,709816.700,709627.100,0.000
275079.000,709012.900,709252.100,709708.100,709414.800,709414.600,709811.700,709622.100,0.000
275039.200,709002.000,709242.400,709698.900,709405.100,709405.100,709801.900,709612.900,0.000
274971.500,708997.200,709239.400,709695.800,709402.300,709402.400,709798.900,709609.800,0.000
274949.600,708995.700,709240.000,709696.200,709402.600,709402.500,709799.300,709610.100,0.000
275015.500,708998.400,709243.700,709699.800,709406.300,709406.400,709803.100,709614.000,0.000
275062.800,709004.600,709250.800,709707.100,709413.000,709413.600,709810.000,709621.100,0.000
275019.500,709002.800,709250.100,709706.400,709412.100,709412.900,709809.000,709620.000,0.000
274921.400,708992.700,709242.200,709698.300,709404.100,709404.500,709801.100,709612.300,0.000
274864.600,708979.600,709230.800,709687.300,709393.100,709393.400,709790.100,709601.100,0.000
274890.800,708978.600,709231.700,709687.800,709393.500,709393.600,709790.700,709601.700,0.000
274962.300,708988.700,709242.600,709698.600,709404.300,709404.600,709801.900,709612.600,0.000
274984.200,708994.300,709248.500,709704.700,709410.900,709410.900,709808.200,709619.100,0.000
274899.000,708985.900,709242.200,709698.300,709404.400,709405.000,709802.300,709612.700,0.000
274866.200,708981.600,709240.800,709696.600,709402.500,709403.100,709800.300,709610.800,0.000
274902.100,708984.400,709244.700,709701.300,709407.100,709407.000,709804.200,709615.100,0.000
274948.000,708987.600,709248.500,709705.100,709410.800,709411.100,709808.400,709619.100,0.000
274915.300,708981.800,709243.800,709700.000,709406.100,709406.300,709803.400,709614.200,0.000
274827.200,708973.100,709237.700,709693.900,709399.300,709399.900,709796.900,709607.800,0.000
274791.700,708966.500,709233.100,709689.400,709394.800,709395.600,709792.600,709603.600,0.000
274857.200,708969.300,709236.800,709693.300,709398.700,709399.000,709796.700,709607.800,0.000
274921.200,708973.100,709241.800,709698.100,709403.600,709403.600,709801.500,709612.300,0.000
274882.000,708969.000,709238.900,709695.000,709400.900,709400.900,709798.800,709609.300,0.000
274809.200,708962.400,709234.400,709690.400,709396.100,709396.600,709794.100,709605.100,0.000
274775.300,708956.500,709230.900,709687.100,709392.600,709393.300,709790.800,709601.900,0.000
274823.500,708959.300,709235.100,709691.700,709396.900,709397.600,709795.100,709606.300,0.000
274879.400,708962.900,709239.800,709696.500,709401.900,709402.100,709800.100,709611.100,0.000
274831.600,708955.900,709234.300,709690.800,709396.400,709396.400,709794.300,709605.600,0.000
274759.800,708949.200,709230.400,709686.800,709392.100,709392.400,709790.700,709601.500,0.000
274720.700,708945.500,709229.800,709686.100,709391.300,709391.500,709789.800,709600.500,0.000
274773.900,708948.400,709234.800,709690.800,709396.100,709396.200,709794.000,709604.900,0.000
274836.800,708957.500,709244.900,709700.600,709405.500,709405.900,709803.800,709615.000,0.000
274790.900,708948.800,709238.100,709693.800,709398.600,709399.200,709797.400,709608.400,0.000
274695.700,708936.400,709229.300,709684.800,709389.900,709390.400,709788.500,709599.600,0.000
274644.900,708922.400,709218.600,709674.600,709379.800,709380.300,709778.700,709589.300,0.000
274692.700,708919.700,709218.600,709674.400,709379.300,709379.700,709778.100,709589.100,0.000
274750.100,708926.000,709226.800,709682.300,709387.000,709387.600,709785.800,709597.100,0.000
274729.300,708928.500,709231.800,709687.500,709392.400,709393.000,709791.200,709602.200,0.000
274633.900,708920.400,709228.800,709684.400,709389.600,709389.700,709788.000,709599.400,0.000
274584.100,708904.500,709219.200,709675.500,709380.100,709380.800,709778.800,709589.900,0.000
274643.000,708906.300,709225.300,709682.100,709386.300,709386.800,709784.900,709596.300,0.000
274686.700,708906.400,709228.800,709685.600,709389.700,709390.100,709788.900,709599.400,0.000
274672.800,708896.000,709229.100,709685.700,709389.700,709390.400,709789.000,709599.300,0.000
274612.800,708782.200,709214.700,709671.100,709375.000,709375.600,709774.700,709585.100,0.000
274560.900,708449.100,709215.900,709672.400,709374.800,709375.200,709775.800,709586.200,0.000
274578.100,708185.100,709220.500,709677.100,709378.500,709379.100,709780.700,709590.700,0.000
274655.400,708038.100,709221.400,709677.900,709379.500,709380.100,709781.000,709591.400,0.000
274625.200,707753.600,709216.800,709673.400,709374.500,709375.400,709776.300,709586.800,0.000
274570.500,707245.700,709220.300,709676.500,709377.900,709378.300,709779.600,709590.100,0.000
274553.600,706731.000,709224.400,709680.400,709381.900,709382.600,709783.500,709594.600,0.000
274594.100,706477.900,709233.100,709689.300,709391.100,709391.600,709792.100,709603.600,0.000
274635.600,706328.600,709232.600,709688.800,709390.700,709390.700,709791.800,709602.600,0.000
274618.500,705991.300,709221.500,709677.900,709379.400,709379.800,709780.800,709592.000,0.000
274514.200,705392.300,709209.100,709665.500,709366.700,709367.000,709768.400,709579.400,0.000
274504.100,704844.300,709214.200,709670.700,709371.600,709371.800,709773.400,709584.100,0.000
274560.700,704578.300,709222.600,709679.300,709380.200,709380.500,709782.000,709592.800,0.000
274585.100,704449.100,709224.600,709681.400,709382.400,709382.600,709784.100,709594.900,0.000
274568.000,704153.800,709220.000,709676.300,709377.400,709377.400,709779.800,709589.900,0.000
274483.700,703569.600,709209.400,709665.600,709366.600,709366.700,709768.900,709579.500,0.000
274438.700,703039.100,709212.600,709668.300,709369.400,709370.000,709772.000,709582.600,0.000
274534.500,702799.700,709218.800,709674.600,709375.600,709376.300,709778.300,709588.900,0.000
274567.600,702712.400,709223.800,709679.900,709381.000,709381.300,709783.600,709594.000,0.000
274535.000,702418.400,709217.800,709673.900,709374.600,709374.800,709777.300,709587.800,0.000
274435.300,701875.900,709211.300,709667.100,709367.900,709368.100,709770.500,709581.600,0.000
274403.100,701337.800,709202.900,709659.000,709359.400,709359.800,709762.100,709573.000,0.000
274470.500,701107.900,709207.500,709663.900,709364.500,709364.800,709766.900,709577.700,0.000
274497.600,701007.300,709207.300,709663.900,709364.300,709364.900,709766.800,709578.000,0.000
274423.700,700723.000,709202.600,709658.900,709358.900,709359.900,709762.100,709573.000,0.000
274379.000,700197.100,709198.400,709654.500,709355.100,709355.600,709757.900,709568.300,0.000
274354.500,699709.900,709205.500,709661.800,709362.000,709362.500,709764.800,709575.600,0.000
274394.200,699432.900,709201.100,709657.400,709357.600,709358.500,709760.800,709571.400,0.000
274491.200,699329.600,709202.800,709659.300,709359.300,709360.200,709762.600,709573.300,0.000
274442.700,699087.100,709212.500,709668.800,709368.700,709369.600,709772.200,709582.800,0.000
274352.700,698551.100,709209.000,709665.500,709365.600,709366.200,709768.800,709579.300,0.000
274343.200,698042.000,709208.400,709664.700,709365.100,709365.300,709768.400,709578.700,0.000
274407.400,697790.200,709214.600,709671.300,709370.900,709371.600,709774.400,709584.900,0.000
274449.300,697695.300,709224.400,709681.100,709380.800,709381.400,709784.100,709594.500,0.000
274415.200,697394.100,709215.600,709671.900,709371.600,709372.300,709774.900,709585.700,0.000
274298.700,696826.700,709201.600,709657.800,709357.500,709358.300,709760.600,709571.600,0.000
274258.400,696280.900,709190.600,709646.800,709346.300,709346.900,709749.200,709560.400,0.000
274335.600,696066.300,709204.100,709660.100,709359.800,709360.400,709762.800,709573.900,0.000
274405.800,695972.500,709211.100,709667.200,709367.100,709368.100,709770.200,709581.300,0.000
274337.600,695683.000,709207.800,709663.800,709363.800,709364.100,709766.600,709577.500,0.000
274253.600,695138.100,709203.300,709659.900,709359.400,709359.800,709762.300,709573.100,0.000
274178.000,694552.400,709185.100,709641.400,709340.900,709341.500,709744.000,709554.900,0.000
274249.100,694287.500,709186.200,709642.400,709342.300,709342.800,709745.400,709556.300,0.000
274333.000,694216.900,709198.200,709654.800,709354.400,709355.300,709757.500,709568.300,0.000
274308.100,693974.300,709205.500,709662.100,709361.500,709362.300,709765.000,709575.800,0.000
274219.700,693480.100,709209.400,709666.500,709365.800,709366.200,709768.900,709580.100,0.000
274216.300,693005.900,709211.400,709668.600,709367.900,709368.600,709770.900,709582.200,0.000
274267.400,692781.900,709209.400,709666.100,709365.600,709366.300,709768.800,709579.700,0.000
274308.800,692708.400,709205.800,709662.800,709361.800,709362.500,709765.200,709576.300,0.000
274273.600,692458.700,709199.800,709656.600,709355.800,709356.300,709758.700,709569.900,0.000
274196.200,691965.000,709193.300,709649.800,709348.800,709349.600,709752.100,709562.800,0.000
274178.500,691521.400,709194.800,709651.000,709350.100,709350.800,709753.700,709564.300,0.000
274235.200,691357.600,709198.300,709654.600,709353.400,709354.300,709757.400,709568.100,0.000
274308.500,691329.000,709195.500,709651.800,709350.800,709351.300,709755.000,709565.400,0.000
274267.600,691162.600,709199.800,709656.400,709355.400,709356.000,709759.400,709569.900,0.000
274180.400,690705.900,709191.200,709648.000,709346.700,709347.500,709750.400,709561.600,0.000
274171.600,690297.200,709193.900,709650.700,709349.200,709350.000,709753.100,709564.100,0.000
274219.300,690152.300,709201.900,709658.700,709357.500,709357.900,709761.000,709572.500,0.000
274297.000,690143.300,709203.200,709659.900,709358.800,709359.300,709762.500,709573.700,0.000
274271.400,689944.200,709198.800,709655.300,709354.200,709354.800,709757.800,709569.100,0.000
274149.300,689481.100,709195.300,709651.300,709350.400,709351.000,709754.200,709565.200,0.000
274087.700,688994.000,709187.900,709643.900,709343.200,709343.600,709747.300,709558.200,0.000
274169.700,688796.400,709193.000,709649.300,709348.100,709348.800,709752.500,709563.100,0.000
274219.800,688759.400,709200.900,709657.400,709355.900,709356.600,709760.400,709571.300,0.000
274190.500,688525.300,709198.400,709655.100,709353.800,709354.200,709757.900,709568.600,0.000
274087.000,688022.800,709196.400,709652.800,709351.500,709351.800,709755.900,709566.300,0.000
274079.900,687546.100,709194.000,709650.700,709349.300,709349.800,709753.800,709564.200,0.000
274137.300,687350.300,709196.600,709653.500,709351.800,709352.600,709756.300,709566.600,0.000
274206.200,687316.900,709199.200,709655.800,709354.300,709355.000,709758.800,709569.200,0.000
274181.700,687086.100,709194.800,709651.300,709349.900,709350.700,709754.200,709565.000,0.000
274066.500,686589.300,709188.000,709645.100,709343.800,709344.200,709747.600,709558.700,0.000
274047.300,686118.500,709185.400,709642.700,709340.900,709341.600,709745.000,709555.800,0.000
274111.000,685956.200,709192.100,709649.100,709347.300,709347.800,709751.600,709562.500,0.000
274169.600,685963.600,709203.400,709660.300,709359.300,709359.800,709763.300,709573.700,0.000
274148.500,685765.700,709204.700,709661.500,709360.300,709360.700,709764.300,709575.000,0.000
274069.300,685291.900,709199.000,709655.800,709354.400,709354.800,709758.900,709569.500,0.000
274059.600,684858.900,709197.800,709654.400,709352.900,709353.500,709757.700,709568.100,0.000
274094.200,684689.200,709191.900,709648.400,709347.100,709347.300,709751.500,709562.100,0.000
274179.300,684704.500,709196.200,709652.600,709351.500,709351.600,709755.700,709566.600,0.000
274131.900,684528.000,709195.600,709652.200,709351.300,709351.300,709755.200,709565.900,0.000
274040.600,684060.100,709189.400,709646.100,709344.400,709345.000,709748.900,709559.600,0.000
274032.300,683653.800,709197.900,709654.100,709352.600,709352.900,709757.100,709567.900,0.000
274086.600,683520.700,709205.700,709662.200,709360.400,709360.600,709765.300,709575.800,0.000
274116.500,683490.800,709200.800,709657.100,709354.900,709355.100,709760.300,709570.600,0.000
274059.500,683274.000,709183.900,709640.300,709336.100,709336.300,709743.100,709553.900,0.000
273939.300,683015.100,709167.800,709623.600,709320.200,709320.500,709726.700,709537.400,0.000
273916.800,682914.400,709166.700,709622.700,709320.200,709320.500,709725.700,709536.600,0.000
273996.000,682957.300,709183.000,709638.900,709336.300,709336.800,709742.100,709552.900,0.000
274090.300,683043.300,709200.300,709656.600,709353.600,709354.600,709759.800,709570.600,0.000
274065.300,683025.200,709203.900,709660.900,709357.500,709358.400,709763.500,709574.500,0.000
273972.000,682803.200,709190.900,709647.600,709345.900,709346.500,709750.700,709561.300,0.000
273905.500,682559.400,709188.400,709645.400,709344.200,709344.600,709748.500,709559.100,0.000
273955.800,682611.100,709195.900,709652.600,709350.900,709351.300,709755.400,709565.800,0.000
274013.000,682799.900,709200.100,709657.000,709355.200,709355.400,709759.800,709569.900,0.000
273977.500,682775.900,709196.400,709653.400,709351.500,709351.600,709756.200,709566.800,0.000
273878.000,682464.300,709186.400,709643.400,709341.900,709341.800,709746.300,709556.800,0.000
273890.200,682217.200,709187.200,709643.700,709342.500,709342.800,709746.700,709557.400,0.000
273914.900,682267.800,709193.800,709650.600,709349.300,709349.600,709753.200,709564.000,0.000
273965.700,682456.300,709197.800,709654.500,709353.100,709353.400,709757.400,709567.700,0.000
273931.900,682418.000,709188.300,709644.800,709343.400,709343.600,709747.800,709558.100,0.000
273845.500,682115.100,709179.100,709636.100,709334.200,709334.700,709739.100,709549.400,0.000
273796.900,681834.000,709176.000,709632.900,709331.200,709331.800,709735.700,709546.100,0.000
273851.300,681874.600,709183.100,709640.100,709338.400,709338.600,709742.800,709553.300,0.000
273900.100,682038.500,709180.500,709636.700,709335.400,709335.600,709739.800,709550.600,0.000
273876.500,682003.600,709175.200,709631.600,709330.300,709330.700,709734.400,709545.300,0.000
273795.800,681725.100,709179.500,709636.000,709335.100,709335.100,709739.100,709549.600,0.000
273777.100,681487.400,709187.900,709644.500,709343.800,709343.300,709747.800,709558.300,0.000
273873.700,681564.800,709201.600,709658.800,709357.300,709357.300,709761.400,709572.100,0.000
273949.000,681765.200,709208.900,709666.300,709364.800,709365.300,709768.900,709579.800,0.000
273906.800,681725.600,709202.800,709659.900,709358.700,709359.100,709763.100,709573.700,0.000
273773.800,681354.800,709183.400,709640.200,709338.800,709339.000,709743.200,709553.800,0.000
273714.000,681027.600,709168.900,709625.300,709324.000,709324.300,709728.200,709539.000,0.000
273794.400,681044.100,709171.300,709627.900,709326.300,709326.800,709730.600,709541.500,0.000
273857.800,681253.100,709184.600,709641.400,709339.600,709340.300,709743.800,709554.900,0.000
273824.200,681217.000,709183.700,709640.100,709338.800,709339.300,709742.900,709553.800,0.000
273728.900,680893.100,709181.600,709637.900,709336.900,709337.000,709741.100,709551.900,0.000
273714.400,680621.600,709186.800,709643.500,709342.300,709342.400,709746.800,709557.400,0.000
273797.100,680634.400,709191.900,709648.800,709347.500,709347.500,709752.100,709562.300,0.000
273837.900,680760.900,709183.900,709640.400,709339.400,709339.400,709743.600,709554.200,0.000
273788.000,680707.500,709182.900,709639.700,709338.600,709338.800,709742.700,709553.300,0.000
273720.200,680385.300,709186.600,709643.300,709342.100,709342.600,709746.300,709557.100,0.000
273665.500,680083.500,709188.300,709644.700,709343.400,709344.100,709747.900,709558.800,0.000
273741.900,680084.300,709194.500,709650.800,709349.600,709350.000,709754.000,709564.800,0.000
273789.400,680203.100,709190.900,709647.400,709346.100,709346.300,709749.900,709560.800,0.000
273715.700,680129.000,709188.800,709645.500,709344.100,709344.200,709748.200,709559.100,0.000
273644.500,679762.100,709177.400,709633.800,709332.600,709332.800,709736.900,709547.300,0.000
273635.500,679471.900,709177.200,709633.900,709332.300,709333.300,709737.100,709547.700,0.000
273726.500,679497.000,709183.100,709640.100,709338.800,709339.300,709743.000,709553.800,0.000
273775.300,679672.500,709188.700,709645.500,709344.400,709344.800,709748.200,709559.100,0.000
273714.200,679608.800,709180.100,709636.700,709335.300,709335.900,709739.600,709550.400,0.000
273634.600,679233.300,709161.300,709617.800,709316.200,709317.300,709720.900,709531.900,0.000
273608.200,679003.400,709174.100,709630.400,709328.800,709329.600,709733.600,709544.600,0.000
273704.800,679077.600,709187.700,709644.100,709342.600,709343.100,709747.400,709558.100,0.000
273799.800,679310.900,709200.400,709657.100,709355.600,709356.200,709760.400,709570.400,0.000
273761.100,679294.100,709196.300,709653.200,709351.900,709352.400,709756.200,709566.600,0.000
273653.300,678948.100,709182.500,709639.300,709338.100,709338.400,709742.200,709553.100,0.000
273608.500,678620.600,709169.800,709626.600,709325.600,709325.900,709729.800,709540.500,0.000
273670.100,678636.200,709173.300,709629.800,709328.600,709329.300,709733.100,709543.800,0.000
273745.800,678830.200,709182.900,709639.300,709337.800,709338.600,709742.500,709553.100,0.000
273706.300,678791.900,709184.700,709641.100,709339.700,709340.500,709744.400,709554.600,0.000
273599.800,678443.800,709182.100,709638.900,709337.200,709337.800,709742.100,709552.300,0.000
273587.200,678166.400,709188.900,709645.700,709344.400,709344.600,709748.800,709559.100,0.000
273650.900,678148.300,709187.400,709643.900,709342.700,709342.800,709747.100,709557.900,0.000
273705.000,678239.900,709175.600,709631.800,709330.900,709330.900,709735.100,709545.800,0.000
273683.300,678188.700,709178.100,709634.300,709333.600,709333.400,709737.500,709548.200,0.000
273589.500,677834.600,709172.400,709628.900,709327.900,709327.800,709731.900,709542.800,0.000
273556.400,677529.500,709173.300,709630.000,709328.800,709328.900,709732.800,709544.000,0.000
273629.400,677523.300,709177.700,709634.400,709333.000,709333.300,709737.300,709548.200,0.000
273711.300,677668.400,709179.300,709635.300,709334.300,709334.700,709738.400,709549.200,0.000
273688.100,677606.100,709177.000,709633.600,709332.300,709332.600,709736.800,709547.100,0.000
273570.800,677259.100,709173.700,709630.300,709329.200,709329.400,709733.400,709543.900,0.000
273529.700,676957.400,709176.000,709632.700,709331.400,709331.700,709736.100,709546.300,0.000
273607.600,676966.100,709182.000,709638.700,709337.600,709338.100,709742.200,709552.800,0.000
273688.400,677095.400,709178.900,709635.200,709334.300,709334.600,709738.900,709549.600,0.000
273645.000,677022.800,709177.200,709633.700,709332.100,709332.600,709737.100,709547.900,0.000
273536.300,676645.300,709167.800,709623.800,709322.400,709322.800,709727.400,709538.600,0.000
273536.100,676344.800,709173.500,709629.800,709328.400,709328.900,709733.100,709544.200,0.000
273617.200,676353.400,709186.400,709642.900,709341.400,709341.600,709746.000,709556.600,0.000
273682.700,676523.100,709199.900,709656.300,709354.800,709354.900,709759.600,709570.300,0.000
273643.600,676430.900,709191.800,709648.200,709346.500,709347.200,709751.200,709562.300,0.000
273549.400,676053.900,709181.300,709637.900,709336.300,709336.900,709740.400,709551.300,0.000
273533.700,675759.100,709185.400,709642.700,709340.900,709341.500,709745.500,709556.000,0.000
273591.600,675764.000,709191.900,709648.900,709347.200,709347.800,709751.900,709562.300,0.000
273673.100,675910.800,709194.300,709650.800,709349.900,709350.100,709754.400,709564.600,0.000
273657.700,675848.400,709192.400,709649.700,709347.800,709348.000,709752.500,709562.900,0.000
273519.000,675523.500,709198.400,709655.300,709353.500,709353.900,709758.100,709568.300,0.000
273477.000,675192.700,709192.600,709649.400,709347.700,709348.100,709752.300,709562.300,0.000
273543.400,675159.700,709187.000,709643.900,709342.100,709343.000,709746.800,709556.800,0.000
273604.500,675249.200,709174.100,709630.900,709328.900,709330.100,709733.800,709543.900,0.000
273592.000,675182.100,709168.700,709624.900,709323.400,709324.100,709728.000,709538.300,0.000
273524.600,674869.300,709171.900,709627.800,709326.600,709327.100,709730.900,709541.500,0.000
273495.100,674562.000,709171.600,709627.900,709326.800,709327.200,709730.900,709541.500,0.000
273563.100,674571.300,709179.400,709636.200,709334.800,709335.600,709739.400,709549.400,0.000
273642.800,674726.600,709184.900,709641.400,709340.100,709341.300,709745.100,709554.900,0.000
273600.000,674646.400,709177.400,709634.100,709332.300,709333.400,709737.100,709547.700,0.000
273497.400,674315.400,709174.100,709630.400,709328.900,709329.600,709733.300,709544.100,0.000
273468.500,674025.100,709176.600,709632.900,709331.500,709332.000,709735.800,709546.600,0.000
273543.300,674056.700,709188.300,709644.500,709343.200,709343.600,709747.800,709558.300,0.000
273608.100,674211.200,709193.800,709649.900,709348.300,709349.100,709753.200,709563.400,0.000
273579.400,674135.000,709189.100,709645.100,709343.600,709344.400,709748.200,709558.800,0.000
273436.300,673731.300,709170.600,709626.300,709325.100,709326.000,709729.900,709540.400,0.000
273385.200,673404.900,709169.000,709625.400,709324.000,709324.600,709728.600,709539.400,0.000
273456.000,673412.100,709183.100,709639.300,709337.800,709338.300,709742.400,709552.900,0.000
273532.500,673578.500,709198.900,709655.100,709353.800,709354.300,709758.100,709568.500,0.000
273469.800,673469.400,709191.500,709647.400,709346.300,709346.900,709750.600,709561.400,0.000
273365.600,673044.400,709170.300,709626.600,709325.400,709325.800,709729.500,709540.900,0.000
273313.100,672678.300,709164.800,709621.200,709319.600,709320.100,709724.100,709534.800,0.000
273350.500,672617.400,709168.700,709625.300,709323.900,709324.400,709728.600,709539.000,0.000
273438.200,672761.500,709189.300,709645.500,709344.600,709345.000,709748.900,709559.600,0.000
273376.800,672599.300,709177.100,709632.900,709332.300,709332.800,709736.700,709547.300,0.000
273274.900,672174.600,709161.900,709618.000,709316.900,709317.600,709721.400,709532.300,0.000
273255.800,671847.800,709169.100,709625.300,709324.100,709324.600,709728.700,709539.200,0.000
273311.100,671793.700,709176.200,709631.900,709330.500,709331.300,709735.500,709546.100,0.000
273383.100,671895.100,709181.100,709637.300,709335.700,709336.500,709740.600,709551.600,0.000
273369.800,671779.500,709173.600,709629.800,709327.800,709328.800,709732.800,709543.800,0.000
273267.200,671426.100,709174.500,709630.900,709328.800,709329.900,709733.600,709544.400,0.000
273230.200,671095.300,709177.000,709633.100,709331.600,709332.400,709735.900,709546.700,0.000
273306.500,671056.300,709183.100,709639.400,709337.900,709338.800,709742.400,709553.600,0.000
273365.300,671161.700,709186.600,709642.300,709340.900,709341.900,709745.600,709557.100,0.000
273328.700,671061.000,709181.100,709637.300,709335.100,709336.500,709740.500,709551.300,0.000
273224.000,670690.100,709174.100,709630.400,709327.900,709329.300,709733.200,709543.900,0.000
273180.900,670350.100,709171.600,709628.300,709326.400,709327.600,709730.900,709541.700,0.000
273256.800,670325.900,709179.400,709636.100,709334.900,709335.400,709739.100,709550.000,0.000
273324.700,670443.200,709184.300,709640.500,709339.200,709339.900,709743.600,709554.800,0.000
273276.600,670346.600,709180.500,709637.000,709335.300,709336.400,709740.200,709550.800,0.000
273174.000,669963.100,709171.600,709628.300,709326.800,709327.600,709731.300,709542.200,0.000
273159.900,669628.300,709174.800,709631.300,709329.400,709330.300,709733.900,709545.100,0.000
273229.800,669568.500,709180.600,709637.800,709335.700,709336.500,709740.200,709551.100,0.000
273283.100,669658.800,709185.400,709642.400,709340.500,709341.400,709744.800,709555.800,0.000
273239.600,669542.900,709184.100,709640.600,709339.300,709340.300,709743.300,709554.400,0.000
273133.900,669154.600,709180.000,709636.600,709335.400,709335.900,709739.400,709550.100,0.000
273092.500,668800.400,709176.400,709633.100,709331.800,709332.300,709736.100,709546.700,0.000
273156.600,668711.100,709173.800,709630.100,709328.900,709329.600,709733.000,709543.900,0.000
273205.100,668776.500,709176.300,709632.700,709331.300,709332.100,709735.500,709546.300,0.000
273165.400,668686.200,709178.100,709634.500,709332.800,709333.400,709736.900,709547.900,0.000
273063.100,668301.800,709169.100,709625.600,709324.100,709324.600,709728.200,709539.600,0.000
273043.700,667954.800,709167.800,709624.600,709323.200,709323.800,709727.200,709538.400,0.000
273111.200,667887.500,709170.900,709627.800,709326.000,709326.800,709730.600,709541.300,0.000
273178.400,667985.400,709175.900,709633.100,709331.300,709332.300,709735.700,709546.400,0.000
273140.700,667875.300,709169.000,709625.800,709324.400,709325.100,709728.600,709539.400,0.000
273040.700,667505.600,709162.400,709618.900,709317.400,709318.300,709721.900,709532.600,0.000
273018.800,667182.700,709163.100,709620.200,709318.400,709319.100,709722.400,709533.600,0.000
273085.900,667142.400,709168.100,709625.100,709323.300,709323.900,709727.400,709538.400,0.000
273151.700,667263.400,709176.300,709633.100,709331.500,709332.300,709735.800,709546.600,0.000
273117.800,667174.800,709171.400,709628.300,709326.800,709327.600,709730.700,709541.700,0.000
273022.500,666817.000,709164.600,709621.500,709320.100,709320.800,709724.000,709535.000,0.000
272982.400,666478.300,709161.100,709618.100,709316.800,709317.600,709720.900,709531.800,0.000
273070.000,666446.400,709173.600,709630.400,709329.400,709330.100,709733.400,709544.400,0.000
273146.900,666550.300,709182.100,709638.400,709337.400,709337.800,709741.400,709552.100,0.000
273096.800,666433.600,709171.800,709628.400,709327.100,709328.000,709730.900,709542.100,0.000
272987.800,666059.100,709164.000,709620.600,709319.300,709320.100,709723.300,709534.800,0.000
272976.400,665734.300,709166.300,709623.100,709321.900,709322.600,709726.100,709536.900,0.000
273035.200,665696.100,709175.100,709632.000,709330.900,709331.500,709734.800,709545.300,0.000
273088.100,665796.100,709180.800,709637.500,709336.300,709337.200,709740.600,709550.900,0.000
273050.100,665694.500,709174.200,709631.000,709329.500,709330.500,709734.200,709544.600,0.000
272950.500,665300.300,709161.500,709618.300,709316.800,709318.000,709721.500,709532.200,0.000
272930.800,664972.800,709166.900,709623.500,709322.100,709323.000,709726.800,709537.300,0.000
273003.100,664930.400,709175.600,709632.100,709330.900,709331.700,709735.100,709545.600,0.000
273059.200,665008.100,709175.100,709632.100,709330.700,709331.600,709735.000,709545.500,0.000
273030.900,664916.800,709175.800,709632.500,709330.900,709332.100,709735.300,709546.100,0.000
272922.200,664528.900,709168.100,709624.600,709322.900,709324.300,709727.600,709538.000,0.000
272887.600,664177.000,709166.000,709622.400,709320.700,709322.000,709725.300,709535.900,0.000
272962.900,664128.800,709176.100,709632.500,709331.100,709331.800,709735.400,709546.100,0.000
273016.700,664213.800,709182.800,709639.500,709337.800,709338.800,709742.100,709552.900,0.000
272973.500,664084.800,709173.300,709629.900,709328.500,709329.300,709732.600,709543.600,0.000
272883.400,663711.400,709168.900,709625.800,709324.000,709325.300,709728.800,709539.400,0.000
272842.400,663366.400,709167.300,709623.600,709322.200,709323.100,709726.800,709537.300,0.000
272886.100,663287.100,709170.200,709626.300,709324.900,709325.600,709729.400,709540.300,0.000
272964.500,663393.600,709180.100,709636.400,709334.800,709335.700,709739.200,709550.300,0.000
272945.300,663313.300,709182.500,709638.600,709337.400,709338.400,709741.600,709552.700,0.000
272851.200,662931.300,709170.400,709626.400,709325.400,709326.200,709729.300,709540.400,0.000
272825.200,662601.900,709171.000,709627.500,709326.200,709326.800,709730.100,709541.100,0.000
272874.900,662557.100,709178.400,709634.800,709333.600,709334.200,709737.700,709548.500,0.000
272946.700,662675.100,709188.100,709644.300,709343.400,709344.000,709747.700,709558.100,0.000
272927.000,662594.700,709188.500,709645.200,709344.300,709344.800,709748.600,709559.000,0.000
272820.400,662205.000,709178.900,709635.900,709334.900,709335.100,709738.800,709549.100,0.000
272783.300,661867.000,709180.600,709637.400,709335.900,709336.700,709740.000,709550.600,0.000
272847.800,661811.300,709186.100,709642.700,709341.400,709341.900,709745.700,709556.000,0.000
272912.200,661922.400,709196.900,709653.700,709352.400,709352.700,709756.700,709567.200,0.000
272854.800,661805.100,709186.600,709643.500,709341.900,709342.600,709746.700,709557.300,0.000
272751.600,661419.400,709171.100,709628.400,709326.600,709327.600,709731.400,709541.800,0.000
272719.200,661049.900,709160.800,709617.500,709316.000,709316.800,709720.800,709530.900,0.000
272808.200,661008.500,709173.900,709630.900,709329.200,709329.900,709733.300,709544.300,0.000
272886.500,661159.100,709195.800,709652.600,709351.000,709351.800,709755.200,709566.100,0.000
272831.700,661062.200,709190.600,709647.600,709345.900,709346.300,709750.400,709560.600,0.000
272741.400,660699.600,709181.800,709638.700,709336.900,709337.400,709741.900,709552.100,0.000
272707.500,660331.300,709172.700,709629.800,709328.000,709328.800,709732.900,709543.400,0.000
272769.000,660273.800,709181.800,709638.300,709336.800,709337.500,709741.300,709552.100,0.000
272803.300,660323.500,709175.300,709632.200,709330.400,709331.300,709735.100,709545.900,0.000
272773.900,660237.600,709174.900,709631.700,709330.100,709330.900,709734.600,709545.100,0.000
272691.800,659895.100,709177.800,709634.300,709333.400,709334.200,709737.800,709548.000,0.000
272662.800,659541.300,709175.600,709631.900,709330.900,709331.500,709735.700,709545.800,0.000
272737.000,659505.800,709189.400,709645.700,709344.400,709345.300,709749.600,709559.500,0.000
272800.300,659594.100,709194.100,709650.800,709349.600,709350.000,709754.400,709564.500,0.000
272739.700,659407.000,709162.900,709619.900,709318.600,709319.100,709723.300,709533.600,0.000
272690.300,659068.600,709160.900,709617.300,709316.600,709317.200,709720.700,709530.900,0.000
272680.600,658740.200,709163.400,709619.600,709318.600,709319.300,709722.800,709533.400,0.000
272748.800,658682.200,709173.500,709629.900,709328.700,709329.400,709733.300,709543.900,0.000
272812.500,658768.100,709178.800,709635.200,709334.100,709334.900,709738.800,709549.400,0.000
272790.200,658709.800,709181.800,709638.500,709337.200,709337.800,709741.900,709552.400,0.000
272709.000,658402.900,709184.900,709642.100,709340.800,709341.300,709745.200,709555.600,0.000
272689.000,658114.900,709195.900,709652.800,709351.900,709352.300,709755.900,709566.400,0.000
272746.900,658055.900,709202.800,709659.200,709358.200,709358.600,709762.600,709572.600,0.000
272794.000,658109.300,709196.500,709652.800,709351.800,709352.300,709756.300,709566.400,0.000
272763.300,658019.400,709187.200,709644.300,709343.000,709343.600,709747.400,709557.700,0.000
272669.900,657682.400,709178.500,709635.200,709333.800,709334.300,709738.200,709548.600,0.000
272619.700,657346.500,709171.400,709627.900,709326.500,709326.600,709730.600,709541.400,0.000
272710.200,657323.700,709186.800,709643.600,709341.900,709342.300,709746.300,709556.900,0.000
272756.400,657399.200,709182.400,709639.300,709337.600,709337.800,709741.900,709552.400,0.000
272708.800,657326.900,709170.400,709626.900,709325.400,709325.800,709729.900,709540.100,0.000
272620.700,657024.800,709167.600,709624.600,709322.800,709323.500,709727.600,709537.600,0.000
272596.400,656722.700,709170.300,709627.500,709325.800,709326.500,709730.100,709540.700,0.000
272675.800,656708.300,709185.400,709641.900,709340.900,709341.300,709744.800,709555.300,0.000
272736.600,656833.100,709194.500,709651.000,709349.900,709350.400,709754.000,709564.600,0.000
272697.000,656780.000,709192.100,709648.700,709347.400,709347.800,709751.800,709561.900,0.000
272611.200,656483.200,709187.900,709644.600,709343.200,709343.900,709747.700,709557.900,0.000
272576.500,656190.300,709189.100,709645.600,709344.600,709345.200,709748.900,709559.500,0.000
272616.700,656131.800,709189.700,709646.000,709344.700,709345.300,709749.400,709559.900,0.000
272677.200,656248.300,709195.100,709651.100,709349.600,709350.200,709754.400,709564.800,0.000
272655.000,656207.800,709194.100,709650.300,709349.100,709349.400,709753.800,709563.900,0.000
272564.200,655905.600,709188.200,709644.400,709343.300,709343.800,709748.100,709558.300,0.000
272518.200,655603.800,709184.500,709641.200,709340.100,709340.500,709744.300,709555.000,0.000
272587.700,655586.800,709196.600,709652.600,709351.700,709352.100,709755.900,709566.600,0.000
272641.600,655679.300,709198.600,709654.800,709353.600,709354.300,709757.700,709568.300,0.000
272609.300,655618.200,709194.100,709650.800,709349.800,709350.400,709753.700,709564.300,0.000
272523.800,655306.100,709183.300,709640.000,709338.800,709339.600,709742.700,709553.600,0.000
272478.600,654981.300,709170.900,709627.600,709326.500,709327.400,709730.600,709541.600,0.000
272537.000,654947.400,709179.400,709635.800,709335.100,709335.900,709739.100,709550.000,0.000
272620.100,655095.300,709194.300,709650.700,709349.800,709350.600,709753.800,709564.500,0.000
272586.300,655070.500,709196.600,709653.200,709352.100,709353.100,709756.300,709567.200,0.000
272505.600,654764.400,709188.300,709645.200,709343.800,709345.000,709747.900,709558.800,0.000
272458.200,654446.700,709179.300,709636.400,709335.100,709336.100,709739.000,709550.200,0.000
272520.800,654419.900,709185.900,709643.100,709341.700,709342.700,709745.700,709556.700,0.000
272574.000,654536.100,709191.900,709648.900,709347.800,709348.600,709751.400,709562.800,0.000
272545.400,654476.800,709185.600,709642.500,709341.300,709341.900,709745.100,709556.400,0.000
272451.500,654177.600,709179.900,709636.300,709335.600,709336.100,709739.400,709550.400,0.000
272429.400,653891.200,709183.300,709640.000,709339.400,709339.900,709743.000,709553.900,0.000
272474.600,653826.000,709186.600,709643.700,709342.800,709343.800,709746.700,709557.400,0.000
272526.400,653908.200,709187.400,709644.100,709343.100,709343.900,709746.900,709557.800,0.000
272507.000,653857.500,709190.900,709647.600,709346.500,709347.400,709750.600,709561.400,0.000
272416.900,653550.600,709185.300,709642.300,709341.400,709341.900,709745.100,709555.700,0.000
272380.300,653244.300,709183.100,709639.800,709338.900,709339.400,709742.700,709553.300,0.000
272426.800,653178.600,709186.100,709642.900,709341.800,709342.600,709745.900,709556.700,0.000
272487.800,653281.500,709193.100,709650.400,709349.100,709349.600,709753.100,709563.900,0.000
272463.800,653227.500,709191.200,709648.200,709346.800,709347.500,709751.200,709561.800,0.000
272378.600,652914.900,709184.900,709641.800,709340.300,709341.100,709744.600,709555.400,0.000
272333.700,652574.600,709174.100,709631.300,709329.600,709330.300,709733.800,709544.800,0.000
272387.400,652511.000,709176.900,709633.800,709332.400,709333.000,709736.800,709547.300,0.000
272444.900,652606.400,709182.500,709639.400,709338.400,709339.000,709742.600,709553.100,0.000
272421.700,652552.400,709181.600,709638.400,709337.200,709337.800,709741.400,709552.400,0.000
272352.800,652256.700,709179.300,709636.000,709334.700,709335.300,709739.100,709550.200,0.000
272318.800,651941.300,709175.600,709632.400,709331.600,709332.000,709735.700,709546.300,0.000
272375.000,651876.600,709179.400,709636.400,709335.400,709336.100,709739.800,709550.200,0.000
272428.800,651969.100,709185.500,709642.400,709341.600,709342.400,709745.800,709556.500,0.000
272405.400,651908.400,709185.300,709641.800,709341.300,709341.900,709745.100,709556.100,0.000
272320.300,651583.600,709178.500,709635.000,709334.300,709334.900,709738.200,709549.100,0.000
272281.600,651258.400,709175.400,709632.400,709331.500,709331.800,709735.300,709546.400,0.000
272331.200,651189.800,709179.500,709636.000,709335.100,709335.500,709739.300,709550.300,0.000
272388.600,651277.600,709184.700,709640.600,709340.100,709340.700,709744.200,709554.800,0.000
272368.700,651220.200,709184.900,709641.100,709340.600,709341.100,709744.600,709555.100,0.000
272278.200,650892.100,709175.100,709632.000,709331.100,709331.600,709735.000,709545.500,0.000
272232.100,650555.400,709169.900,709626.800,709325.900,709326.500,709729.300,709540.100,0.000
272283.000,650487.500,709175.400,709632.200,709331.800,709332.100,709735.500,709546.100,0.000
272330.600,650557.900,709177.400,709633.800,709333.600,709333.700,709737.300,709547.800,0.000
272302.200,650483.600,709175.600,709631.800,709331.700,709332.100,709735.100,709545.800,0.000
272246.500,650196.600,709179.300,709635.600,709335.300,709335.900,709739.100,709550.000,0.000
272218.700,649883.300,709177.900,709634.300,709333.900,709334.500,709737.800,709548.600,0.000
272273.000,649813.600,709181.200,709637.500,709337.200,709337.600,709740.900,709551.400,0.000
272330.900,649907.300,709189.300,709645.500,709344.800,709345.500,709748.600,709559.400,0.000
272311.800,649845.200,709184.900,709641.000,709340.800,709341.300,709744.800,709555.300,0.000
272230.100,649542.700,709181.200,709637.400,709337.400,709337.800,709740.700,709551.700,0.000
272186.300,649226.400,709179.300,709635.400,709335.300,709335.600,709738.800,709549.400,0.000
272227.200,649142.200,709179.900,709636.300,709335.700,709336.300,709739.600,709550.100,0.000
272276.700,649225.400,709180.600,709636.900,709336.100,709336.700,709740.000,709550.400,0.000
272247.200,649170.900,709176.800,709633.100,709332.800,709333.300,709736.600,709546.700,0.000
272167.900,648876.900,709170.300,709626.700,709326.300,709327.000,709729.900,709540.300,0.000
272135.000,648576.700,709168.900,709625.400,709324.700,709325.900,709728.800,709538.800,0.000
272200.500,648530.300,709178.100,709634.900,709334.300,709335.100,709738.000,709548.400,0.000
272262.600,648631.800,709183.400,709640.100,709339.100,709339.700,709742.800,709553.600,0.000
272240.900,648591.700,709181.300,709637.900,709337.200,709337.800,709741.100,709551.400,0.000
272150.700,648285.400,709171.900,709628.400,709327.800,709328.400,709731.600,709541.900,0.000
272103.200,647958.300,709164.800,709621.800,709320.900,709321.300,709724.700,709535.300,0.000
272154.600,647898.900,709168.900,709625.800,709324.900,709325.600,709728.800,709539.400,0.000
272225.700,648012.500,709178.100,709635.100,709334.400,709334.700,709738.400,709548.600,0.000
272212.900,647974.800,709178.400,709634.900,709334.500,709334.900,709738.300,709548.500,0.000
272131.500,647663.600,709169.600,709626.300,709326.100,709326.100,709729.400,709539.900,0.000
272099.300,647351.600,709167.300,709623.600,709323.400,709323.300,709727.100,709537.500,0.000
272156.700,647292.100,709173.100,709629.600,709328.900,709329.300,709732.600,709543.100,0.000
272234.500,647406.800,709181.800,709638.500,709337.800,709338.100,709741.300,709552.100,0.000
272232.300,647376.300,709185.700,709642.500,709342.300,709342.200,709746.000,709556.300,0.000
272144.500,647061.900,709176.400,709633.100,709332.600,709333.000,709736.700,709546.900,0.000
272110.000,646754.800,709174.400,709630.800,709330.600,709330.900,709734.500,709544.700,0.000
272162.100,646696.200,709180.900,709637.700,709337.000,709337.200,709740.600,709551.300,0.000
272220.100,646789.700,709182.500,709639.100,709338.300,709338.600,709742.300,709553.100,0.000
272191.300,646735.000,709176.400,709633.100,709332.600,709332.600,709736.300,709547.100,0.000
272103.300,646431.900,709167.000,709623.800,709323.300,709323.500,709726.400,709537.400,0.000
272070.000,646128.000,709164.900,709621.800,709320.900,709321.400,709724.500,709535.300,0.000
272129.600,646072.400,709171.400,709628.500,709327.600,709327.900,709731.100,709541.800,0.000
272185.600,646187.400,709178.000,709635.100,709334.500,709335.100,709737.800,709548.600,0.000
272151.100,646139.400,709170.800,709628.400,709327.300,709328.100,709731.100,709541.700,0.000
272061.900,645848.300,709161.300,709619.000,709318.200,709318.400,709721.500,709532.400,0.000
272023.300,645554.000,709158.700,709615.700,709315.100,709315.100,709718.600,709529.300,0.000
272075.700,645503.100,709164.900,709621.400,709320.500,709321.000,709724.200,709535.100,0.000
272136.700,645619.700,709172.500,709629.400,709328.300,709329.000,709731.900,709543.100,0.000
272116.400,645592.700,709172.700,709629.800,709329.000,709329.500,709732.500,709543.800,0.000
272041.300,645312.000,709165.300,709622.400,709321.800,709322.400,709725.100,709536.300,0.000
272000.800,645005.900,709160.200,709617.300,709316.400,709317.000,709719.900,709530.500,0.000
272042.000,644932.600,709164.100,709621.300,709320.100,709321.100,709723.900,709534.400,0.000
272092.800,645032.800,709166.300,709623.600,709322.600,709323.400,709726.400,709537.200,0.000
272073.300,645009.300,709164.900,709622.100,709321.100,709321.400,709724.700,709535.800,0.000
271989.900,644721.300,709158.300,709615.700,709315.100,709315.200,709718.200,709529.300,0.000
271949.000,644416.500,709156.100,709613.500,709313.000,709313.300,709716.100,709527.400,0.000
271983.300,644343.900,709157.900,709615.000,709314.100,709315.100,709717.900,709529.100,0.000
272048.400,644455.400,709166.600,709624.100,709323.000,709323.900,709726.800,709537.600,0.000
272027.800,644419.000,709164.900,709622.400,709321.800,709322.800,709725.500,709536.300,0.000
271946.500,644125.700,709161.900,709619.100,709318.400,709319.500,709722.400,709533.300,0.000
271907.200,643811.600,709159.300,709616.300,709315.600,709316.300,709719.400,709530.500,0.000
271960.700,643736.600,709165.000,709622.100,709321.300,709322.100,709725.400,709536.300,0.000
272016.900,643816.100,709167.700,709624.600,709324.100,709325.100,709728.100,709538.800,0.000
272001.200,643775.700,709165.600,709622.500,709322.100,709322.900,709725.800,709536.900,0.000
271916.100,643475.400,709158.100,709615.500,709314.600,709315.600,709718.500,709529.500,0.000
271872.900,643145.600,709154.600,709612.100,709310.500,709311.800,709714.500,709525.900,0.000
271915.300,643056.500,709158.600,709615.900,709315.000,709315.800,709718.900,709529.900,0.000
271970.700,643145.000,709162.600,709619.800,709319.300,709320.100,709723.300,709533.800,0.000
271940.700,643089.500,709159.600,709617.100,709316.400,709317.000,709720.300,709531.200,0.000
271858.800,642784.100,709154.200,709611.800,709310.800,709311.600,709714.900,709525.600,0.000
271820.200,642463.600,709153.100,709609.900,709309.100,709309.800,709713.100,709523.900,0.000
271864.000,642375.900,709156.300,709612.900,709312.000,709312.900,709715.900,709526.900,0.000
271927.600,642478.400,709161.600,709618.600,709317.900,709318.600,709722.000,709532.600,0.000
271914.600,642448.000,709161.800,709618.400,709318.100,709318.500,709721.900,709532.600,0.000
271837.500,642164.700,709154.400,709611.400,709310.600,709311.300,709714.900,709525.300,0.000
271797.500,641875.200,709149.000,709605.900,709305.000,709305.600,709708.900,709519.800,0.000
271850.000,641844.600,709153.200,709610.500,709310.100,709310.300,709713.800,709524.700,0.000
271917.800,641995.600,709158.100,709615.400,709315.400,709315.800,709719.000,709529.900,0.000
271907.500,642015.400,709159.400,709616.800,709316.400,709317.000,709720.100,709531.100,0.000
271820.800,641761.700,709149.600,709606.800,709306.300,709306.600,709709.900,709521.000,0.000
271796.000,641498.900,709149.900,709607.400,709306.900,709307.500,709710.300,709521.300,0.000
271867.700,641477.500,709160.900,709618.200,709317.800,709318.300,709721.000,709532.000,0.000
271928.400,641604.800,709167.600,709624.600,709324.100,709324.700,709727.400,709538.800,0.000
271891.400,641585.400,709160.400,709617.400,709316.900,709317.400,709720.500,709531.800,0.000
271814.700,641331.300,709155.200,709612.300,709311.900,709312.400,709715.300,709526.300,0.000
271783.600,641055.800,709156.600,709613.600,709313.300,709313.700,709716.800,709527.400,0.000
271830.400,641002.800,709162.100,709619.100,709318.900,709319.600,709722.400,709533.100,0.000
271882.300,641104.600,709164.600,709621.300,709321.300,709321.800,709724.800,709535.300,0.000
271859.100,641066.600,709160.400,709617.700,709317.100,709317.600,709720.900,709531.600,0.000
271764.500,640763.700,709151.900,709609.600,709309.300,709309.700,709712.900,709523.400,0.000
271719.200,640433.500,709149.200,709606.500,709306.000,709306.600,709709.800,709519.900,0.000
271757.800,640340.700,709153.600,709610.700,709310.300,709310.800,709713.900,709524.300,0.000
271801.300,640411.100,709156.500,709613.800,709313.600,709313.900,709716.900,709527.400,0.000
271764.900,640328.700,709150.100,709607.500,709307.300,709307.200,709710.500,709521.100,0.000
271677.700,639990.400,709144.700,709602.500,709302.100,709302.500,709705.300,709516.200,0.000
271635.300,639639.400,709144.300,709601.800,709301.700,709302.000,709704.900,709515.700,0.000
271674.100,639517.800,709149.300,709606.700,709306.600,709306.600,709710.000,709520.500,0.000
271727.700,639562.100,709155.400,709612.900,709312.400,709312.800,709716.000,709526.900,0.000
271704.200,639468.500,709156.900,709614.600,709314.400,709315.000,709717.800,709528.700,0.000
271621.200,639111.000,709151.500,709608.800,709308.400,709309.100,709712.600,709523.300,0.000
271576.300,638722.400,709148.000,709605.600,709305.100,709305.800,709709.100,709519.700,0.000
271606.000,638565.900,709150.300,709608.100,709307.100,709308.300,709710.700,709522.100,0.000
271672.300,638612.200,709156.000,709614.000,709312.800,709313.800,709716.400,709527.100,0.000
271650.700,638539.200,709155.100,709612.600,709312.200,709312.900,709716.100,709526.300,0.000
271572.000,638220.600,709148.100,709605.600,709305.600,709305.800,709709.100,709520.100,0.000
271530.600,637865.900,709145.400,709603.400,709303.100,709303.300,709706.300,709517.400,0.000
271575.300,637745.000,709151.100,709608.900,709308.800,709309.300,709711.600,709523.000,0.000
271644.900,637815.800,709156.100,709613.900,709313.500,709314.100,709716.600,709528.100,0.000
271638.300,637772.900,709155.500,709613.500,709313.300,709313.500,709716.300,709527.400,0.000
271579.200,637497.100,709149.600,709607.700,709307.700,709307.900,709710.800,709521.800,0.000
271549.200,637209.000,709148.000,709605.800,709305.400,709306.400,709709.100,709519.600,0.000
271620.100,637181.300,709158.100,709615.600,709315.900,709316.400,709719.300,709529.900,0.000
271689.300,637320.600,709161.700,709619.600,709319.600,709319.900,709722.800,709533.300,0.000
271677.700,637321.300,709157.300,709615.200,709314.600,709315.300,709718.400,709529.200,0.000
271597.200,637065.800,709150.300,709608.300,709307.900,709308.400,709711.400,709522.600,0.000
271558.300,636780.100,709146.400,709604.400,709304.300,709304.800,709707.700,709518.500,0.000
271616.300,636754.600,709151.000,709608.800,709308.900,709309.100,709711.800,709522.600,0.000
271673.200,636887.700,709152.300,709609.900,709309.700,709310.200,709713.000,709523.900,0.000
271650.100,636895.200,709150.300,709607.900,709307.400,709308.100,709711.200,709521.800,0.000
271575.800,636653.200,709147.300,709604.700,709304.500,709304.900,709707.800,709518.700,0.000
271548.500,636399.000,709147.700,709605.300,709305.200,709305.400,709708.100,709519.700,0.000
271593.300,636363.800,709149.400,709607.200,709307.300,709307.700,709710.500,709521.500,0.000
271642.700,636490.600,709151.400,709608.800,709308.900,709309.300,709712.600,709523.000,0.000
271624.900,636509.400,709154.100,709611.100,709311.000,709311.600,709714.800,709525.100,0.000
271534.900,636261.900,709147.400,709605.200,709304.700,709305.800,709708.500,709518.900,0.000
271492.000,635990.800,709144.000,709601.800,709301.500,709302.300,709705.300,709515.600,0.000
271539.100,635961.400,709147.500,709605.000,709304.900,709305.800,709708.300,709519.300,0.000
271592.200,636106.800,709151.900,709609.600,709309.400,709310.200,709712.800,709523.400,0.000
271569.900,636119.100,709148.000,709606.100,709305.400,709306.300,709709.100,709519.900,0.000
271496.000,635885.500,709144.600,709602.300,709302.000,709302.300,709705.400,709516.400,0.000
271454.900,635617.700,709143.800,709601.400,709301.600,709301.800,709704.900,709515.400,0.000
271487.900,635563.900,709147.100,709605.000,709304.400,709305.300,709708.300,709518.300,0.000
271528.700,635680.100,709149.600,709607.100,709306.600,709307.400,709710.600,709520.700,0.000
271508.100,635691.100,709146.500,709603.800,709304.200,709304.100,709707.200,709517.900,0.000
271426.300,635450.100,709137.800,709595.300,709295.400,709295.600,709698.900,709509.600,0.000
271385.300,635185.800,709136.700,709594.300,709294.100,709294.800,709697.500,709508.500,0.000
271431.800,635142.800,709144.100,709601.700,709301.400,709301.900,709704.700,709515.600,0.000
271493.600,635273.900,709147.300,709604.800,709304.600,709304.800,709707.900,709518.600,0.000
271466.800,635283.900,709142.100,709599.400,709299.400,709300.000,709702.900,709513.700,0.000
271395.200,635053.300,709140.800,709598.200,709298.500,709298.700,709701.400,709512.500,0.000
271360.700,634793.900,709140.300,709598.100,709298.100,709298.500,709701.300,709512.300,0.000
271415.900,634775.400,709147.400,709605.100,709305.100,709305.600,709708.500,709519.400,0.000
271486.800,634937.900,709155.000,709613.200,709312.900,709313.300,709716.600,709527.400,0.000
271466.300,634971.000,709149.600,709608.000,709307.300,709307.900,709711.000,709522.100,0.000
271396.600,634776.300,709143.100,709601.300,709301.100,709301.400,709704.300,709515.100,0.000
271358.900,634550.100,709140.000,709598.200,709298.100,709298.800,709701.600,709512.400,0.000
271405.100,634555.400,709144.400,709602.500,709302.500,709303.100,709706.000,709516.800,0.000
271471.100,634738.700,709149.900,709608.300,709308.100,709308.600,709711.800,709522.300,0.000
271458.800,634798.300,709147.200,709605.700,709305.600,709305.900,709709.100,709519.900,0.000
271376.200,634607.600,709142.800,709601.400,709301.300,709301.100,709704.400,709515.500,0.000
271334.500,634379.300,709144.300,709602.400,709302.100,709302.300,709705.400,709516.300,0.000
271361.200,634349.600,709144.300,709602.300,709302.000,709302.500,709705.400,709516.200,0.000
271404.600,634483.200,709144.900,709602.900,709302.900,709303.700,709706.400,709517.400,0.000
271386.000,634496.300,709145.300,709602.900,709302.800,709303.100,709706.000,709516.800,0.000
271303.200,634246.200,709142.000,709599.400,709299.400,709299.800,709702.800,709513.600,0.000
271254.300,633954.100,709139.300,709596.800,709296.800,709298.100,709700.800,709511.400,0.000
271291.800,633905.800,709142.000,709600.000,709299.900,709301.200,709703.600,709514.500,0.000
271348.700,634054.600,709145.200,709602.800,709302.600,709303.600,709706.300,709517.100,0.000
271341.300,634118.100,709142.800,709600.300,709300.100,709301.000,709703.600,709514.300,0.000
271285.900,633973.200,709138.600,709596.700,709296.400,709297.300,709699.800,709510.600,0.000
271267.800,633803.400,709140.100,709598.600,709298.300,709298.600,709701.700,709512.700,0.000
271317.200,633839.000,709142.100,709600.700,709300.400,709300.600,709703.600,709514.700,0.000
271375.500,634031.600,709146.100,709604.700,709304.400,709304.900,709707.600,709518.400,0.000
271363.300,634099.700,709147.100,709605.300,709305.200,709305.800,709708.800,709519.100,0.000
271281.700,633896.500,709141.300,709599.400,709299.100,709299.900,709702.700,709513.600,0.000
271238.500,633644.900,709138.800,709596.800,709296.800,709297.300,709699.800,709511.300,0.000
271261.400,633561.500,709140.500,709598.400,709298.300,709299.200,709701.900,709512.800,0.000
271300.000,633627.800,709142.000,709599.700,709299.400,709300.800,709703.100,709514.100,0.000
271270.300,633574.600,709139.800,709598.000,709297.700,709298.700,709701.300,709512.200,0.000
271184.000,633268.400,709134.000,709592.600,709292.300,709292.800,709695.900,709506.800,0.000
271145.100,632924.400,709133.900,709592.400,709292.300,709292.900,709695.800,709506.800,0.000
271182.900,632775.300,709140.100,709598.400,709298.100,709298.700,709701.800,709512.400,0.000
271238.000,632814.100,709145.400,709604.100,709303.500,709304.400,709707.500,709518.000,0.000
271222.700,632763.100,709141.700,709600.500,709300.300,709301.300,709703.600,709514.600,0.000
271145.600,632493.900,709134.500,709593.200,709293.100,709293.800,709696.400,709507.300,0.000
271103.300,632206.600,709130.400,709589.500,709289.600,709289.800,709692.300,709503.300,0.000
271147.300,632151.500,709136.300,709595.400,709295.400,709296.200,709698.400,709509.100,0.000
271207.300,632281.500,709140.700,709599.800,709299.800,709300.800,709702.700,709513.900,0.000
271213.300,632333.300,709144.600,709603.400,709303.300,709304.500,709706.900,709517.600,0.000
271159.800,632163.900,709143.200,709602.000,709301.700,709302.300,709705.200,709515.600,0.000
271122.600,631954.600,709137.800,709596.500,709296.300,709296.900,709699.800,709510.000,0.000
271182.500,631984.300,709142.300,709601.300,709301.100,709301.700,709703.900,709515.100,0.000
271274.600,632228.900,709150.400,709609.600,709309.100,709310.000,709712.000,709523.400,0.000
271290.200,632406.100,709152.400,709610.900,709310.400,709311.300,709714.100,709524.900,0.000
271245.500,632394.200,709147.800,709606.300,709305.900,709306.800,709709.500,709520.500,0.000
271234.900,632366.400,709147.400,709606.500,709306.300,709307.100,709709.500,709520.500,0.000
271292.600,632521.600,709152.300,709610.900,709311.000,709311.800,709714.300,709525.600,0.000
271354.500,632813.100,709154.600,709613.500,709313.500,709314.300,709716.800,709527.800,0.000
271344.100,632977.600,709152.400,709611.300,709311.400,709312.000,709714.600,709525.600,0.000
271263.900,632870.100,709145.000,709604.300,709304.300,709304.800,709707.100,709518.500,0.000
271211.100,632696.900,709142.200,709601.100,709301.400,709301.500,709704.600,709515.600,0.000
271237.700,632697.600,709145.200,709604.000,709304.200,709304.600,709707.700,709518.300,0.000
271280.500,632825.800,709151.300,709610.200,709310.200,709310.600,709713.300,709524.300,0.000
271264.600,632847.100,709148.600,709607.800,709307.500,709308.100,709710.800,709522.000,0.000
271197.500,632632.600,709140.100,709599.000,709299.400,709299.600,709702.200,709513.300,0.000
271164.000,632375.100,709135.900,709595.400,709295.200,709295.800,709698.500,709509.700,0.000
271206.100,632319.000,709139.900,709599.400,709299.400,709299.900,709702.500,709513.200,0.000
271257.800,632416.200,709143.400,709602.900,709302.900,709303.500,709706.000,709516.600,0.000
271247.700,632427.900,709145.300,709604.400,709304.600,709305.400,709707.800,709518.500,0.000
271174.000,632203.400,709139.300,709598.600,709299.000,709299.900,709702.200,709513.000,0.000
271128.600,631937.900,709134.300,709593.800,709294.000,709294.800,709697.100,709508.400,0.000
271163.200,631873.200,709137.800,709597.200,709297.300,709297.600,709700.000,709511.800,0.000
271214.600,631968.400,709144.000,709604.000,709303.900,709303.900,709706.600,709518.100,0.000
271181.900,631935.800,709140.900,709600.400,709300.400,709300.800,709703.100,709514.900,0.000
271088.000,631659.600,709130.900,709590.100,709290.100,709290.700,709693.500,709504.600,0.000
271031.200,631342.900,709124.500,709584.100,709284.000,709284.600,709687.100,709498.100,0.000
271047.600,631196.400,709124.600,709584.100,709284.000,709284.400,709686.900,709497.900,0.000
271083.300,631200.400,709129.300,709588.900,709288.600,709289.300,709691.900,709502.600,0.000
271059.200,631118.400,709130.300,709589.600,709289.400,709290.300,709692.700,709503.500,0.000
270987.400,630840.100,709128.300,709587.600,709287.400,709288.500,709690.800,709501.900,0.000
270942.400,630506.300,709127.400,709587.100,709286.900,709288.000,709690.400,709501.000,0.000
270975.700,630373.300,709131.800,709591.800,709291.600,709292.500,709694.900,709505.600,0.000
271025.700,630414.100,709139.000,709598.900,709298.800,709299.600,709702.100,709513.100,0.000
270988.400,630314.800,709135.700,709595.900,709295.400,709296.500,709698.900,709510.100,0.000
270888.500,629942.900,709126.300,709586.100,709285.600,709286.900,709689.400,709500.100,0.000
270828.900,629479.700,709123.200,709582.600,709282.300,709283.300,709686.300,709496.600,0.000
270827.400,629127.800,709121.600,709581.100,709280.500,709281.600,709684.400,709494.900,0.000
270833.800,628870.100,709123.800,709583.300,709282.900,709284.000,709686.500,709497.300,0.000
270771.200,628496.500,709119.300,709578.800,709278.600,709279.200,709681.700,709492.900,0.000
270677.200,627958.600,709111.900,709571.600,709271.700,709272.100,709674.600,709485.900,0.000
270652.100,627482.600,709111.900,709571.700,709271.700,709272.600,709674.700,709486.100,0.000
270732.200,627359.700,709121.400,709581.400,709281.300,709282.300,709684.600,709495.600,0.000
270835.100,627512.800,709133.200,709593.400,709293.100,709293.900,709696.500,709507.300,0.000
270865.900,627620.100,709136.100,709596.700,709296.400,709297.100,709699.800,709510.400,0.000
270817.800,627496.400,709130.900,709591.500,709291.400,709292.100,709694.600,709505.300,0.000
270802.000,627311.100,709132.000,709592.800,709292.700,709293.200,709695.600,709506.400,0.000
270856.100,627288.100,709136.900,709597.800,709297.300,709298.400,709700.400,709511.300,0.000
270902.800,627375.100,709137.600,709598.400,709298.300,709298.900,709701.400,709512.300,0.000
270889.700,627360.500,709134.200,709594.600,709294.800,709295.100,709697.500,709508.600,0.000
270827.100,627114.800,709129.500,709589.800,709290.000,709290.400,709692.800,709504.100,0.000
270804.600,626845.600,709127.900,709588.400,709288.600,709289.400,709691.500,709502.500,0.000
270834.500,626744.400,709128.200,709588.700,709289.000,709289.600,709692.400,709503.100,0.000
270893.800,626824.100,709134.400,709595.300,709295.600,709295.800,709698.900,709509.700,0.000
270899.100,626855.500,709134.800,709595.800,709295.800,709296.400,709699.400,709509.800,0.000
270867.200,626764.800,709133.600,709594.300,709294.400,709295.200,709697.600,709508.300,0.000
270881.700,626737.800,709135.900,709596.700,709297.100,709297.900,709699.800,709510.600,0.000
270973.600,626966.600,709144.200,709605.000,709305.100,709305.900,709707.800,709518.900,0.000
271082.900,627395.100,709149.800,709610.600,709311.000,709311.400,709713.900,709524.700,0.000
271109.700,627719.600,709149.900,709610.700,709311.000,709311.200,709713.500,709524.800,0.000
271067.200,627790.500,709142.400,709603.200,709303.300,709304.100,709706.200,709517.200,0.000
271060.600,627820.800,709142.800,709603.600,709303.900,709305.000,709707.200,709518.300,0.000
271131.700,628066.600,709147.500,709608.300,709308.600,709309.500,709711.600,709523.000,0.000
271222.600,628510.300,709155.500,709616.600,709316.600,709317.100,709719.600,709530.900,0.000
271264.200,628911.600,709156.300,709617.300,709317.300,709317.800,709720.300,709531.800,0.000
271256.000,629136.900,709155.400,709616.400,709316.300,709316.400,709719.300,709530.500,0.000
271263.000,629333.000,709154.400,709615.500,709315.000,709315.100,709718.100,709529.200,0.000
271339.700,629736.900,709159.300,709620.200,709319.900,709320.200,709723.000,709533.900,0.000
271429.500,630306.100,709165.000,709626.000,709325.600,709325.900,709728.800,709539.600,0.000
271430.600,630742.000,709161.400,709622.500,709322.100,709322.600,709725.700,709536.100,0.000
271365.900,630904.600,709154.100,709615.200,709314.900,709315.300,709718.400,709528.900,0.000
271324.100,630963.700,709147.800,709608.400,709308.300,709309.100,709712.200,709522.600,0.000
271364.800,631177.200,709151.700,709612.600,709312.700,709313.300,709716.200,709526.900,0.000
271412.900,631509.300,709156.800,709617.800,709317.800,709318.200,709721.000,709531.800,0.000
271377.100,631682.500,709153.200,709614.200,709314.100,709314.700,709717.400,709528.300,0.000
271288.200,631585.800,709147.200,709608.300,709307.900,709308.700,709711.300,709522.000,0.000
271221.000,631389.100,709143.600,709604.500,709304.500,709305.200,709707.400,709518.300,0.000
271217.900,631332.900,709143.200,709604.400,709304.200,709304.800,709707.500,709518.000,0.000
271234.800,631404.000,709142.500,709603.800,709303.700,709304.100,709707.200,709517.600,0.000
271183.900,631350.600,709139.100,709600.000,709300.000,709300.300,709703.100,709514.300,0.000
271072.900,631033.400,709132.900,709593.700,709293.900,709294.100,709696.500,709508.000,0.000
270989.400,630625.100,709128.000,709588.900,709288.800,709289.200,709691.500,709503.100,0.000
270986.200,630376.300,709129.300,709590.400,709290.400,709291.000,709693.300,709504.700,0.000
271007.100,630275.800,709132.200,709593.400,709292.800,709293.800,709695.900,709507.400,0.000
270960.900,630059.800,709129.800,709590.800,709290.800,709291.300,709693.600,709504.900,0.000
270849.000,629588.500,709121.400,709582.800,709283.100,709283.200,709685.300,709497.000,0.000
270765.300,629049.000,709117.000,709578.600,709278.800,709278.600,709681.400,709492.900,0.000
270763.800,628689.600,709120.100,709581.900,709281.900,709282.100,709685.000,709495.900,0.000
270783.600,628480.900,709121.800,709583.300,709283.400,709283.800,709686.300,709497.100,0.000
270742.300,628182.500,709118.900,709580.100,709280.400,709280.700,709683.100,709494.100,0.000
270647.400,627661.700,709112.900,709575.100,709275.300,709275.700,709678.100,709489.100,0.000
270588.500,627104.000,709109.300,709571.900,709271.400,709272.200,709674.400,709485.400,0.000
270608.800,626740.000,709113.700,709575.800,709275.600,709276.400,709678.600,709489.900,0.000
270654.400,626544.400,709122.400,709584.500,709284.400,709285.300,709687.500,709498.600,0.000
270629.800,626266.100,709123.100,709585.400,709285.200,709285.800,709688.100,709499.000,0.000
270541.600,625756.900,709119.700,709582.200,709281.900,709282.900,709684.800,709495.900,0.000
270481.700,625197.100,709118.800,709581.100,709280.700,709281.900,709683.800,709494.600,0.000
270498.000,624840.600,709121.800,709584.300,709283.800,709285.200,709686.900,709497.900,0.000
270536.800,624640.900,709120.700,709583.100,709283.300,709283.900,709685.900,709497.000,0.000
270523.000,624390.100,709115.600,709577.600,709278.000,709278.600,709681.000,709491.600,0.000
270452.700,623940.400,709108.100,709570.600,709270.800,709271.300,709674.000,709485.000,0.000
270413.300,623448.800,709108.500,709570.800,709271.100,709271.700,709674.600,709485.000,0.000
