EEG 1, EEG 2, EEG 3, EEG 4, EEG 5, EEG 6, EEG 7, EEG 8, TRIG
750000.100,750000.100,750000.100,750000.100,750000.100,750000.100,750000.100,750000.100,0.000
750000.100,750000.100,750000.100,750000.100,750000.100,750000.100,750000.100,750000.100,0.000
650349.200,750000.100,750000.100,750000.100,750000.100,750000.100,750000.100,750000.100,0.000
556858.300,750000.100,750000.100,750000.100,750000.100,750000.100,750000.100,750000.100,0.000
488000.500,750000.100,750000.100,750000.100,750000.100,750000.100,750000.100,750000.100,0.000
458233.900,750000.100,750000.100,750000.100,750000.100,750000.100,750000.100,750000.100,0.000
442271.400,750000.100,750000.100,750000.100,750000.100,750000.100,750000.100,750000.100,0.000
428130.600,750000.100,750000.100,750000.100,750000.100,750000.100,750000.100,750000.100,0.000
415495.500,750000.100,750000.100,750000.100,750000.100,750000.100,750000.100,750000.100,0.000
404261.200,750000.100,750000.100,750000.100,750000.100,750000.100,750000.100,750000.100,0.000
394167.000,750000.100,750000.100,750000.100,750000.100,750000.100,750000.100,750000.100,0.000
384882.400,750000.100,750000.100,750000.100,750000.100,750000.100,750000.100,750000.100,0.000
376225.100,750000.100,750000.100,750000.100,750000.100,750000.100,750000.100,750000.100,0.000
368309.000,750000.100,750000.100,750000.100,750000.100,750000.100,750000.100,750000.100,0.000
361159.800,750000.100,750000.100,750000.100,750000.100,750000.100,750000.100,750000.100,0.000
354596.500,750000.100,750000.100,750000.100,750000.100,750000.100,750000.100,750000.100,0.000
348430.300,750000.100,750000.100,750000.100,750000.100,750000.100,750000.100,750000.100,0.000
342579.900,750000.100,750000.100,750000.100,750000.100,750000.100,750000.100,750000.100,0.000
337137.700,750000.100,750000.100,750000.100,750000.100,750000.100,750000.100,750000.100,0.000
332185.700,750000.100,750000.100,750000.100,750000.100,750000.100,750000.100,750000.100,0.000
327622.100,750000.100,750000.100,750000.100,750000.100,750000.100,750000.100,750000.100,0.000
323278.000,750000.100,750000.100,750000.100,750000.100,750000.100,750000.100,750000.100,0.000
319084.700,750000.100,750000.100,750000.100,750000.100,750000.100,750000.100,750000.100,0.000
315155.700,750000.100,750000.100,750000.100,750000.100,750000.100,750000.100,750000.100,0.000
311579.800,750000.100,750000.100,750000.100,750000.100,750000.100,750000.100,750000.100,0.000
308284.800,750000.100,750000.100,750000.100,750000.100,750000.100,750000.100,750000.100,0.000
305112.100,750000.100,750000.100,750000.100,750000.100,750000.100,750000.100,750000.100,0.000
301996.100,750000.100,750000.100,750000.100,750000.100,750000.100,750000.100,750000.100,0.000
299061.600,750000.100,750000.100,750000.100,750000.100,750000.100,750000.100,750000.100,0.000
296419.600,750000.100,750000.100,750000.100,750000.100,750000.100,750000.100,750000.100,0.000
293975.500,750000.100,750000.100,750000.100,750000.100,750000.100,750000.100,750000.100,0.000
291596.000,750000.100,750000.100,750000.100,750000.100,750000.100,750000.100,750000.100,0.000
289239.400,742927.300,750000.100,750000.100,750000.100,750000.100,750000.100,750000.100,0.000
286995.000,735003.400,750000.100,750000.100,750000.100,750000.100,750000.100,750000.100,0.000
284985.300,727676.300,750000.100,750000.100,750000.100,750000.100,750000.100,750000.100,0.000
283132.200,720979.300,750000.100,750000.100,750000.100,750000.100,750000.100,750000.100,0.000
281310.800,714547.900,750000.100,750000.100,750000.100,750000.100,750000.100,750000.100,0.000
279491.200,708065.200,750000.100,750000.100,750000.100,750000.100,750000.100,750000.100,0.000
277757.300,701667.800,750000.100,750000.100,750000.100,750000.100,750000.100,750000.100,0.000
276218.700,695768.200,750000.100,750000.100,750000.100,750000.100,750000.100,750000.100,0.000
274792.700,690400.100,750000.100,750000.100,750000.100,750000.100,750000.100,750000.100,0.000
273390.700,685229.900,750000.100,750000.100,750000.100,750000.100,750000.100,750000.100,0.000
271958.400,679921.700,750000.100,750000.100,750000.100,750000.100,750000.100,750000.100,0.000
270581.000,674632.200,750000.100,750000.100,750000.100,750000.100,750000.100,750000.100,0.000
269395.800,669799.600,750000.100,750000.100,750000.100,750000.100,750000.100,750000.100,0.000
268302.200,665429.000,750000.100,750000.100,750000.100,750000.100,750000.100,750000.100,0.000
267228.400,661211.100,750000.100,750000.100,750000.100,750000.100,750000.100,750000.100,0.000
266096.600,656824.800,750000.100,750000.100,750000.100,750000.100,750000.100,750000.100,0.000
265000.000,652405.100,750000.100,750000.100,750000.100,750000.100,750000.100,750000.100,0.000
264062.800,648371.000,750000.100,750000.100,750000.100,750000.100,750000.100,750000.100,0.000
263214.400,644760.100,750000.100,750000.100,750000.100,750000.100,750000.100,750000.100,0.000
262356.700,641260.800,750000.100,750000.100,750000.100,750000.100,750000.100,750000.100,0.000
261452.200,637565.900,750000.100,750000.100,750000.100,750000.100,750000.100,750000.100,0.000
260577.600,633812.700,750000.100,750000.100,750000.100,750000.100,750000.100,750000.100,0.000
259848.600,630411.700,750000.100,750000.100,750000.100,750000.100,750000.100,750000.100,0.000
259207.500,627412.100,750000.100,750000.100,750000.100,750000.100,750000.100,750000.100,0.000
258534.300,624481.200,749602.600,750000.100,749773.600,749774.600,750000.100,749984.600,0.000
257780.300,621307.600,747722.500,748209.300,747893.000,747893.900,748307.400,748104.000,0.000
257079.000,618084.600,745935.100,746420.700,746104.700,746106.300,746518.700,746315.900,0.000
256515.300,615189.100,744242.400,744727.000,744411.600,744413.600,744825.300,744622.800,0.000
256031.900,612657.400,742629.700,743112.800,742798.300,742800.600,743211.400,743009.800,0.000
255501.800,610168.900,741078.900,741560.800,741247.000,741249.400,741659.800,741458.300,0.000
254907.200,607449.800,739592.800,740073.400,739761.300,739763.100,740172.800,739971.700,0.000
254336.400,604643.600,738177.500,738657.100,738345.800,738348.000,738756.600,738556.600,0.000
253884.400,602121.900,736832.700,737311.100,737000.300,737002.300,737410.800,737211.400,0.000
253519.000,599975.800,735556.500,736033.900,735723.400,735725.700,736134.100,735934.700,0.000
253119.400,597873.000,734333.400,734809.900,734500.100,734502.500,734910.400,734711.400,0.000
252637.700,595512.800,733159.100,733634.600,733325.600,733327.500,733734.900,733536.400,0.000
252166.800,593037.800,732034.700,732509.300,732200.900,732202.600,732609.700,732411.900,0.000
251828.400,590851.400,730974.100,731448.300,731140.300,731142.400,731548.600,731351.600,0.000
251549.600,589004.900,729964.800,730438.100,730130.800,730133.100,730538.600,730341.700,0.000
251227.200,587185.100,728996.400,729468.900,729162.100,729164.300,729569.400,729372.600,0.000
250823.400,585096.100,728065.000,728537.200,728230.700,728232.500,728637.900,728441.400,0.000
250438.300,582897.400,727177.900,727649.300,727343.100,727344.800,727749.700,727554.100,0.000
250165.600,580966.200,726342.300,726813.100,726507.100,726509.100,726913.400,726718.300,0.000
249961.600,579362.100,725548.200,726018.500,725713.000,725715.100,726119.000,725924.200,0.000
249717.700,577790.600,724788.100,725257.900,724953.000,724954.600,725358.500,725163.600,0.000
249383.700,575939.100,724055.400,724524.300,724220.100,724221.500,724625.100,724430.300,0.000
249063.100,573960.100,723354.700,723823.200,723519.100,723521.000,723924.400,723729.600,0.000
248856.100,572242.900,722698.000,723166.400,722862.300,722864.500,723267.400,723072.700,0.000
248712.700,570855.800,722076.600,722544.800,722240.700,722242.800,722645.300,722451.100,0.000
248522.800,569478.300,721478.700,721945.600,721642.400,721644.500,722047.100,721852.700,0.000
248246.100,567819.600,720900.500,721366.900,721064.400,721066.700,721468.800,721274.800,0.000
247976.100,566026.100,720348.800,720815.000,720512.600,720514.900,720916.900,720722.800,0.000
247812.900,564482.700,719834.400,720300.300,719997.800,720000.100,720402.200,720208.400,0.000
247716.900,563261.100,719347.800,719813.600,719511.600,719513.900,719915.700,719722.300,0.000
247580.300,562054.100,718883.600,719349.400,719047.900,719050.100,719451.600,719258.300,0.000
247340.000,560548.000,718431.100,718896.600,718595.100,718597.400,718998.500,718805.100,0.000
247113.600,558914.700,718000.400,718465.300,718164.100,718166.300,718566.900,718373.800,0.000
246996.300,557523.700,717600.800,718064.900,717763.900,717766.300,718166.900,717973.600,0.000
246943.500,556447.800,717224.300,717688.400,717387.700,717390.000,717790.600,717597.300,0.000
246825.200,555356.200,716855.700,717319.200,717019.100,717021.300,717421.800,717228.600,0.000
246615.100,553976.100,716495.800,716959.100,716659.000,716661.100,717061.300,716868.900,0.000
246423.700,552469.200,716157.100,716620.000,716319.700,716321.900,716722.100,716529.900,0.000
246340.400,551194.400,715845.500,716308.400,716007.900,716010.400,716410.600,716218.400,0.000
246314.900,550219.300,715551.000,716014.100,715713.700,715716.100,716116.300,715924.000,0.000
246231.100,549240.500,715265.100,715728.000,715428.100,715430.300,715829.900,715638.000,0.000
246062.000,547980.600,714985.300,715447.800,715148.100,715150.600,715549.900,715357.900,0.000
245897.000,546574.600,714722.200,715184.600,714885.200,714887.900,715287.100,715095.200,0.000
245846.900,545409.300,714484.100,714946.300,714646.800,714649.500,715048.700,714856.800,0.000
245864.500,544551.800,714261.800,714723.500,714424.000,714426.500,714825.800,714633.700,0.000
245823.000,543685.800,714044.700,714505.800,714206.600,714208.800,714608.300,714416.300,0.000
245666.700,542509.500,713826.100,714287.300,713988.400,713990.200,714390.300,714198.300,0.000
245520.500,541191.300,713621.400,714082.500,713783.900,713785.800,714185.600,713993.700,0.000
245483.400,540103.600,713436.100,713896.600,713598.300,713600.200,713999.600,713807.800,0.000
245498.000,539299.400,713261.300,713721.800,713423.600,713425.800,713824.800,713633.200,0.000
245446.700,538490.200,713086.800,713546.800,713248.300,713250.900,713649.900,713458.300,0.000
245308.300,537396.600,712915.200,713375.600,713076.900,713079.600,713478.600,713287.000,0.000
245177.700,536149.400,712751.600,713211.800,712913.900,712916.400,713315.100,713123.800,0.000
245144.300,535123.300,712603.400,713063.400,712765.700,712768.200,713166.500,712975.400,0.000
245180.600,534406.800,712469.800,712929.600,712631.900,712634.100,713032.800,712841.900,0.000
245149.300,533670.200,712336.100,712795.400,712498.200,712500.600,712899.200,712707.800,0.000
245032.100,532645.100,712200.800,712660.300,712363.300,712365.500,712764.100,712572.900,0.000
244936.100,531481.900,712077.300,712537.100,712240.300,712242.100,712640.600,712449.800,0.000
244936.200,530532.600,711967.600,712427.200,712130.400,712132.500,712530.800,712339.600,0.000
244972.800,529859.900,711862.400,712321.900,712025.700,712027.600,712425.800,712234.700,0.000
244956.400,529185.400,711758.400,712217.800,711921.700,711923.500,712321.400,712130.600,0.000
244836.500,528203.300,711646.500,712105.900,711809.300,711811.300,712209.500,712018.300,0.000
244735.000,527085.100,711546.800,712005.800,711709.300,711711.300,712109.600,711917.900,0.000
244728.800,526181.900,711461.400,711920.000,711623.600,711625.800,712024.000,711831.900,0.000
244798.500,525586.000,711389.000,711847.500,711551.300,711553.500,711951.400,711759.900,0.000
244799.100,524969.800,711310.300,711769.400,711472.900,711475.100,711872.900,711681.900,0.000
244684.700,524041.600,711221.200,711680.100,711383.400,711385.900,711783.600,711592.600,0.000
244584.000,522973.700,711141.600,711600.200,711303.900,711306.100,711704.400,711512.600,0.000
244583.300,522113.400,711071.700,711530.600,711234.600,711236.600,711634.900,711443.100,0.000
244645.500,521544.100,711009.800,711468.500,711172.600,711174.700,711572.800,711381.100,0.000
244645.300,520968.100,710945.800,711404.500,711108.200,711110.300,711508.200,711317.100,0.000
244548.000,520097.200,710875.800,711334.300,711037.800,711040.600,711438.100,711247.200,0.000
244452.400,519066.900,710813.100,711271.400,710974.900,710977.300,711375.100,711183.900,0.000
244451.000,518244.500,710759.700,711218.100,710921.500,710923.800,711321.400,711130.300,0.000
244518.600,517734.700,710715.100,711173.400,710877.100,710879.500,711277.100,711086.200,0.000
244535.800,517222.100,710669.000,711126.800,710831.000,710833.400,711231.000,711039.800,0.000
244430.800,516380.600,710611.900,711069.900,710774.300,710776.500,711174.000,710983.000,0.000
244328.800,515374.300,710559.500,711017.400,710721.500,710723.800,711121.300,710930.600,0.000
244338.100,514589.800,710518.200,710976.100,710680.300,710682.300,711080.100,710888.900,0.000
244406.700,514102.600,710482.900,710940.900,710645.300,710647.300,711045.100,710853.600,0.000
244418.100,513609.000,710442.600,710901.100,710605.200,710607.400,711005.000,710813.700,0.000
244343.400,512827.200,710400.900,710859.600,710563.800,710566.000,710963.300,710772.600,0.000
244267.500,511881.300,710360.100,710818.300,710523.200,710525.000,710922.500,710731.500,0.000
244276.500,511130.000,710328.900,710787.100,710492.000,710493.600,710890.800,710700.100,0.000
244337.500,510662.600,710300.900,710758.800,710463.800,710465.300,710862.900,710671.900,0.000
244344.600,510194.300,710268.800,710726.900,710431.600,710433.400,710830.900,710640.100,0.000
244259.500,509431.400,710230.200,710688.500,710392.900,710394.900,710792.400,710601.100,0.000
244175.800,508508.500,710195.500,710653.400,710358.300,710360.200,710757.200,710566.300,0.000
244199.300,507804.300,710172.800,710630.600,710335.300,710337.300,710734.800,710543.500,0.000
244263.700,507383.600,710152.100,710610.100,710314.300,710316.700,710714.100,710522.900,0.000
244265.700,506943.500,710125.800,710583.400,710287.900,710290.100,710687.500,710496.100,0.000
244182.000,506214.300,710093.900,710551.400,710255.900,710258.100,710655.500,710463.900,0.000
244100.700,505319.100,710064.400,710522.400,710226.800,710228.600,710626.300,710434.700,0.000
244127.800,504642.300,710048.900,710506.800,710211.300,710213.600,710610.800,710419.600,0.000
244215.100,504256.700,710038.900,710496.600,710201.300,710203.400,710600.700,710409.600,0.000
244232.600,503848.100,710018.100,710475.600,710179.700,710182.600,710579.300,710388.400,0.000
244143.300,503134.200,709985.500,710443.300,710147.900,710150.400,710547.100,710356.300,0.000
244063.100,502260.300,709959.900,710417.600,710122.200,710124.700,710521.600,710330.300,0.000
244075.300,501582.800,709944.400,710402.300,710107.200,710109.500,710506.400,710314.900,0.000
244145.300,501205.500,709932.500,710390.400,710095.200,710097.900,710494.300,710303.100,0.000
244151.200,500825.600,709916.100,710374.100,710078.600,710081.300,710477.900,710286.600,0.000
244072.700,500157.400,709893.600,710351.500,710055.900,710058.700,710455.100,710264.100,0.000
244013.000,499327.000,709878.900,710336.800,710041.800,710044.100,710440.700,710249.500,0.000
244021.800,498675.300,709863.000,710320.800,710025.900,710028.100,710424.700,710233.300,0.000
244088.800,498317.800,709851.500,710309.100,710014.400,710016.300,710413.100,710221.900,0.000
244116.600,497973.100,709841.100,710298.400,710004.200,710006.100,710403.100,710211.700,0.000
244050.100,497329.600,709821.900,710279.300,709984.700,709987.400,710383.400,710192.600,0.000
243970.900,496501.800,709802.300,710259.800,709965.200,709967.900,710363.800,710173.000,0.000
243992.200,495880.300,709792.000,710249.900,709954.900,709957.400,710353.500,710162.900,0.000
244080.300,495562.300,709788.600,710246.500,709951.500,709954.400,710350.000,710159.400,0.000
244110.500,495242.500,709779.600,710237.600,709942.700,709945.400,710341.300,710150.300,0.000
244029.000,494605.100,709758.300,710216.100,709921.500,709923.600,710319.900,710129.100,0.000
243956.700,493809.100,709744.900,710202.600,709908.200,709910.100,710306.400,710115.900,0.000
243969.500,493199.200,709737.200,710194.400,709900.200,709902.400,710298.900,710108.100,0.000
244043.000,492883.100,709731.500,710188.600,709894.300,709896.800,710292.900,710102.100,0.000
244059.300,492566.400,709722.800,710179.900,709885.700,709888.300,710284.600,710093.300,0.000
243980.100,491953.100,709704.900,710162.200,709867.600,709870.500,710266.900,710075.000,0.000
243915.200,491186.200,709692.500,710149.900,709855.600,709858.200,710254.200,710062.600,0.000
243934.300,490604.200,709686.000,710143.300,709848.800,709851.300,710247.600,710056.100,0.000
244010.200,490316.500,709685.200,710142.900,709848.200,709850.800,710246.600,710055.400,0.000
244034.900,490029.100,709678.600,710136.500,709841.800,709844.600,710240.200,710048.900,0.000
243955.700,489429.400,709661.600,710119.300,709824.600,709827.400,710223.300,710032.200,0.000
243869.000,488656.400,709646.800,710104.600,709810.000,709812.400,710208.600,710017.400,0.000
243895.500,488103.800,709643.700,710101.400,709806.900,709809.100,710205.200,710013.900,0.000
243969.800,487835.300,709641.100,710098.500,709804.200,709806.800,710202.500,710011.100,0.000
243982.400,487559.000,709632.000,710089.400,709795.100,709797.900,710193.400,710002.300,0.000
243914.800,486997.800,709619.400,710076.700,709782.600,709785.400,710181.000,709990.100,0.000
243852.800,486268.300,709612.100,710069.000,709774.800,709777.700,710173.600,709982.100,0.000
243876.300,485720.800,709610.500,710067.900,709773.600,709776.900,710172.100,709980.900,0.000
243968.000,485483.800,709613.000,710070.300,709776.400,709779.300,710174.800,709983.500,0.000
244002.000,485243.500,709611.400,710068.800,709774.500,709777.300,710173.300,709981.600,0.000
243926.800,484694.600,709596.800,710053.800,709759.600,709762.500,710158.500,709967.100,0.000
243850.900,483969.300,709583.300,710040.400,709746.400,709749.200,710144.800,709953.700,0.000
243878.000,483443.300,709583.500,710040.800,709746.900,709749.400,710145.000,709953.700,0.000
243952.900,483200.900,709582.200,710039.300,709745.400,709747.900,710143.800,709952.400,0.000
243974.600,482968.800,709576.800,710034.100,709740.200,709742.700,710138.100,709946.900,0.000
243901.200,482437.700,709563.400,710021.000,709727.200,709729.400,710124.700,709933.800,0.000
243826.000,481729.600,709555.600,710012.700,709719.000,709720.900,710116.200,709924.900,0.000
243845.700,481213.300,709555.100,710011.900,709718.400,709720.600,710115.900,709924.900,0.000
243931.300,480995.600,709557.400,710014.400,709720.800,709722.900,710118.200,709927.600,0.000
243956.600,480778.700,709553.700,710011.100,709717.600,709719.900,710115.100,709924.300,0.000
243885.500,480260.200,709541.400,709998.800,709704.900,709707.400,710102.500,709911.800,0.000
243808.900,479560.200,709530.300,709987.900,709693.600,709696.000,710091.400,709900.400,0.000
243824.000,479054.100,709526.500,709983.800,709689.600,709692.100,710087.800,709896.600,0.000
243907.400,478858.600,709531.300,709988.700,709694.600,709697.300,710092.900,709901.800,0.000
243953.700,478680.800,709535.100,709992.300,709698.300,709700.900,710096.700,709905.500,0.000
243882.300,478183.100,709522.400,709979.800,709686.100,709688.300,710084.100,709892.400,0.000
243810.700,477509.200,709511.800,709968.900,709675.400,709677.900,710073.300,709881.900,0.000
243829.700,477024.800,709509.100,709966.400,709672.700,709675.200,710070.500,709879.200,0.000
243905.600,476832.400,709511.400,709969.100,709675.500,709677.500,710073.300,709881.900,0.000
243932.300,476646.100,709509.100,709966.300,709672.700,709675.000,710070.300,709879.000,0.000
243857.900,476155.500,709497.700,709955.400,709661.600,709664.300,710059.600,709868.000,0.000
243778.100,475486.100,709487.300,709944.600,709650.900,709653.400,710049.000,709857.100,0.000
243793.300,475005.300,709486.100,709943.300,709649.600,709652.200,710047.400,709855.700,0.000
243891.000,474839.200,709495.200,709952.300,709658.600,709661.500,710056.600,709864.700,0.000
243932.400,474679.900,709494.300,709951.900,709658.400,709660.700,710056.100,709864.000,0.000
243873.200,474222.900,709484.900,709942.500,709649.100,709651.500,710046.900,709855.100,0.000
243783.200,473562.700,709472.300,709930.000,709636.900,709639.100,710034.300,709843.100,0.000
243786.500,473096.600,709470.100,709927.600,709634.300,709636.700,710032.100,709840.500,0.000
243872.600,472951.800,709478.800,709936.100,709643.000,709645.200,710040.700,709849.100,0.000
243914.200,472818.800,709484.000,709941.300,709647.900,709650.400,710045.700,709854.100,0.000
243851.100,472374.100,709477.600,709935.300,709641.600,709644.600,710039.800,709847.900,0.000
243770.700,471728.600,709467.900,709925.700,709631.800,709634.700,710029.700,709838.300,0.000
243797.900,471285.600,709468.800,709926.200,709632.600,709635.100,710030.300,709838.500,0.000
243885.600,471142.700,709473.000,709930.100,709636.600,709639.100,710034.300,709842.600,0.000
243914.200,470994.900,709470.600,709927.600,709633.900,709636.700,710031.700,709840.600,0.000
243844.000,470556.200,709460.100,709917.300,709623.600,709626.600,710021.800,709830.100,0.000
243755.100,469920.300,709450.100,709907.900,709614.200,709617.100,710012.300,709820.400,0.000
243769.100,469482.500,709449.800,709907.200,709613.900,709616.400,710012.100,709820.200,0.000
243861.100,469359.800,709456.800,709913.600,709620.400,709622.900,710018.300,709826.700,0.000
243896.700,469243.100,709457.300,709913.700,709620.400,709623.100,710018.100,709826.800,0.000
243846.500,468841.000,709456.600,709913.100,709620.200,709622.300,710017.400,709825.800,0.000
243756.300,468217.300,709444.400,709901.000,709607.900,709610.300,710005.300,709813.800,0.000
243755.300,467775.600,709440.300,709897.800,709604.300,709607.100,710001.800,709810.400,0.000
243845.300,467660.000,709448.900,709906.300,709612.900,709616.000,710010.400,709819.000,0.000
243874.900,467543.800,709448.800,709905.800,709612.900,709615.400,710010.100,709818.700,0.000
243799.300,467128.500,709437.200,709893.900,709601.400,709603.400,709998.800,709807.100,0.000
243720.400,466531.800,709427.500,709884.400,709591.500,709593.800,709988.800,709797.000,0.000
243742.700,466126.200,709428.500,709885.400,709592.400,709594.900,709989.400,709798.100,0.000
243824.400,466016.600,709433.900,709890.600,709598.000,709600.300,709995.100,709803.300,0.000
243851.200,465910.100,709432.300,709889.600,709596.600,709598.800,709993.600,709802.300,0.000
243790.100,465513.600,709424.400,709881.400,709588.600,709591.200,709985.900,709794.500,0.000
243712.300,464924.800,709415.300,709872.100,709579.500,709582.400,709976.600,709785.300,0.000
243734.100,464533.700,709417.900,709875.300,709581.800,709584.900,709979.300,709787.900,0.000
243811.600,464428.200,709421.300,709878.800,709584.600,709587.900,709983.200,709791.100,0.000
243844.100,464336.800,709421.700,709878.800,709584.900,709588.000,709983.100,709791.300,0.000
243784.500,463952.500,709415.600,709872.800,709579.700,709582.400,709977.400,709785.500,0.000
243719.300,463379.100,709412.400,709869.200,709576.200,709579.100,709973.900,709782.100,0.000
243741.200,462983.800,709413.900,709870.400,709577.900,709580.400,709975.400,709783.600,0.000
243815.400,462882.700,709414.600,709871.800,709578.900,709581.000,709976.600,709784.800,0.000
243846.400,462804.300,709416.600,709873.800,709580.700,709583.200,709978.300,709786.500,0.000
243778.700,462427.100,709408.800,709865.800,709572.600,709575.600,709970.500,709778.600,0.000
243698.700,461850.800,709399.300,709856.100,709563.100,709565.600,709960.600,709768.800,0.000
243720.800,461468.600,709400.400,709857.600,709564.600,709566.600,709961.400,709769.900,0.000
243815.400,461396.400,709408.600,709865.400,709572.400,709575.000,709969.600,709778.100,0.000
243863.400,461349.300,709414.800,709871.700,709578.900,709581.600,709976.400,709784.400,0.000
243795.200,460981.700,709406.300,709863.600,709570.600,709573.300,709967.900,709775.900,0.000
243708.500,460412.300,709394.500,709851.800,709558.500,709561.500,709955.600,709764.400,0.000
243719.000,460037.600,709394.600,709852.200,709558.800,709561.800,709956.200,709765.000,0.000
243793.100,459962.800,709398.800,709856.100,709562.800,709565.600,709960.400,709768.600,0.000
243819.100,459905.500,709400.400,709858.000,709564.900,709567.700,709962.800,709770.400,0.000
243742.800,459545.700,709390.500,709848.300,709555.000,709557.800,709952.900,709760.800,0.000
243658.100,458982.500,709381.600,709839.100,709546.100,709548.600,709943.600,709751.400,0.000
243689.700,458626.300,709387.700,709845.100,709551.800,709554.400,709949.200,709757.400,0.000
243793.300,458582.400,709401.300,709858.700,709565.400,709568.300,709962.800,709771.100,0.000
243820.100,458525.500,709399.000,709856.700,709563.100,709565.800,709960.100,709768.900,0.000
243756.100,458175.100,709390.600,709847.900,709554.600,709557.100,709951.400,709760.400,0.000
243670.300,457624.100,709379.300,709837.000,709543.400,709546.300,709940.700,709749.400,0.000
243685.900,457260.700,709380.400,709838.100,709544.700,709547.600,709941.900,709750.600,0.000
243777.800,457211.800,709389.700,709847.000,709553.600,709556.500,709951.000,709759.400,0.000
243808.400,457167.200,709392.400,709849.500,709556.500,709559.400,709953.600,709762.100,0.000
243733.400,456818.900,709383.400,709840.400,709547.400,709550.200,709944.800,709753.100,0.000
243661.200,456294.300,709378.000,709835.400,709542.300,709545.100,709939.800,709748.200,0.000
243682.600,455954.500,709380.600,709837.900,709544.700,709547.500,709942.300,709750.600,0.000
243769.900,455910.700,709388.500,709845.700,709552.500,709555.200,709949.900,709758.300,0.000
243798.200,455867.100,709386.000,709843.300,709550.200,709552.900,709947.700,709755.900,0.000
243725.800,455517.400,709375.600,709833.100,709539.700,709542.500,709936.900,709745.600,0.000
243663.400,454997.100,709372.000,709829.200,709536.400,709539.100,709933.400,709741.700,0.000
243689.100,454661.000,709374.700,709831.900,709538.900,709541.600,709935.900,709744.300,0.000
243762.900,454608.000,709377.000,709834.100,709541.400,709544.200,709938.400,709746.300,0.000
243793.800,454588.700,709378.600,709835.900,709543.400,709545.800,709940.300,709748.300,0.000
243722.200,454272.100,709372.500,709829.700,709537.200,709539.400,709933.800,709742.400,0.000
243636.600,453748.500,709362.700,709819.600,709527.100,709529.400,709923.900,709732.600,0.000
243657.200,453412.100,709364.600,709821.300,709528.900,709531.500,709926.200,709734.400,0.000
243743.600,453382.400,709372.500,709830.000,709537.600,709539.600,709934.600,709742.600,0.000
243780.100,453370.700,709374.100,709831.900,709539.300,709541.500,709935.900,709744.400,0.000
243708.100,453048.100,709366.000,709823.300,709530.900,709533.400,709927.800,709736.300,0.000
243629.200,452535.100,709358.100,709815.400,709523.200,709525.400,709919.900,709728.400,0.000
243654.700,452214.400,709360.600,709818.100,709525.300,709527.800,709922.200,709730.900,0.000
243744.400,452191.400,709369.100,709826.700,709533.800,709536.300,709930.800,709739.400,0.000
243779.500,452182.300,709372.200,709829.600,709537.000,709539.200,709933.800,709742.500,0.000
243711.500,451876.700,709363.400,709820.800,709528.200,709530.600,709925.100,709733.600,0.000
243629.900,451368.400,709357.600,709815.400,709522.600,709525.100,709919.100,709727.900,0.000
243638.100,451037.500,709356.200,709813.800,709521.200,709523.600,709917.400,709726.400,0.000
243719.600,451012.400,709360.600,709818.100,709524.900,709527.900,709921.700,709730.800,0.000
243782.200,451036.600,709371.200,709828.800,709535.400,709538.400,709932.400,709740.900,0.000
243711.200,450737.300,709364.200,709821.900,709529.000,709531.600,709925.500,709734.100,0.000
243620.400,450230.900,709350.800,709808.600,709515.600,709518.300,709912.200,709720.800,0.000
243639.800,449924.400,709352.300,709809.900,709517.200,709519.600,709913.600,709722.200,0.000
243737.300,449928.200,709365.200,709822.400,709529.700,709532.600,709926.700,709735.100,0.000
243771.200,449931.600,709367.100,709824.400,709531.700,709534.400,709928.800,709737.100,0.000
243702.300,449639.500,709357.900,709815.300,709522.600,709525.300,709919.100,709728.100,0.000
243618.200,449143.800,709348.000,709805.400,709512.800,709515.300,709908.900,709717.800,0.000
243640.600,448835.700,709349.900,709807.100,709514.700,709517.000,709910.800,709719.600,0.000
243730.400,448830.800,709357.100,709814.400,709522.000,709524.700,709918.400,709727.100,0.000
243769.500,448840.400,709361.100,709818.400,709525.900,709528.700,709922.400,709731.100,0.000
243707.700,448554.800,709354.900,709812.600,709519.500,709522.100,709916.300,709724.800,0.000
243629.500,448072.800,709346.900,709804.200,709511.600,709513.900,709908.300,709716.800,0.000
243639.900,447760.300,709347.700,709804.900,709512.700,709514.700,709909.100,709717.400,0.000
243719.200,447747.800,709353.200,709810.600,709518.500,709520.900,709914.600,709723.400,0.000
243755.700,447772.900,709354.200,709811.500,709519.300,709521.600,709915.700,709724.400,0.000
243703.200,447510.300,709350.400,709807.800,709515.600,709517.600,709912.000,709720.500,0.000
243641.000,447053.200,709347.900,709804.600,709512.900,709514.700,709909.500,709717.800,0.000
243660.500,446758.100,709349.100,709805.900,709513.500,709516.000,709910.600,709718.900,0.000
243751.200,446769.300,709356.600,709814.000,709521.600,709524.100,709918.100,709726.600,0.000
243772.500,446782.900,709354.600,709812.400,709519.900,709522.200,709916.100,709725.100,0.000
243704.400,446511.600,709346.100,709803.800,709510.800,709513.500,709907.600,709716.600,0.000
243627.000,446051.100,709339.800,709797.300,709504.700,709507.400,709901.300,709710.200,0.000
243637.300,445762.500,709342.100,709799.500,709507.200,709509.300,709903.300,709712.600,0.000
243716.500,445762.800,709348.800,709806.600,709514.300,709516.400,709910.500,709719.600,0.000
243748.300,445789.900,709349.400,709806.600,709514.400,709517.100,709911.200,709719.900,0.000
243683.000,445531.200,709343.000,709800.600,709508.100,709510.800,709905.000,709713.300,0.000
243609.300,445077.500,709335.900,709793.800,709501.400,709504.200,709898.100,709706.200,0.000
243623.800,444785.300,709335.500,709793.300,709500.900,709503.700,709897.300,709706.000,0.000
243708.800,444794.400,709342.800,709799.900,709508.000,709510.200,709904.300,709712.900,0.000
243748.300,444827.400,709342.800,709799.700,709508.100,709510.000,709904.300,709712.800,0.000
243696.200,444583.300,709339.700,709797.200,709505.400,709507.300,709901.300,709709.900,0.000
243623.700,444139.800,709337.200,709794.500,709502.800,709504.800,709898.700,709707.200,0.000
243633.000,443854.600,709335.500,709792.800,709501.200,709503.300,709897.200,709705.800,0.000
243714.400,443876.400,709342.500,709799.900,709508.600,709510.400,709904.100,709712.700,0.000
243747.000,443922.100,709345.900,709803.800,709512.000,709513.900,709907.100,709716.400,0.000
243672.500,443665.900,709337.600,709795.100,709503.400,709505.400,709898.800,709707.800,0.000
243582.700,443204.700,709327.600,709784.900,709493.100,709495.400,709889.100,709697.600,0.000
243585.300,442912.300,709326.600,709784.000,709492.100,709494.200,709888.300,709696.800,0.000
243677.700,442937.500,709336.100,709794.000,709502.300,709504.100,709897.800,709706.600,0.000
243713.900,442984.900,709340.100,709797.200,709505.600,709508.000,709901.800,709709.700,0.000
243648.600,442737.300,709333.400,709790.700,709498.900,709501.400,709895.300,709703.600,0.000
243574.700,442291.800,709328.500,709785.300,709493.500,709496.200,709889.800,709698.600,0.000
243590.300,442014.600,709328.900,709785.900,709493.400,709496.100,709889.800,709699.100,0.000
243691.500,442059.200,709340.300,709797.900,709505.600,709507.700,709901.900,709710.500,0.000
243724.400,442115.000,709342.100,709799.900,709508.100,709509.900,709904.100,709712.600,0.000
243662.000,441891.900,709335.800,709793.000,709501.100,709503.500,709897.200,709705.600,0.000
243581.200,441456.400,709329.500,709786.600,709494.800,709497.300,709891.100,709699.500,0.000
243588.300,441178.700,709328.500,709785.800,709494.300,709496.500,709890.400,709698.400,0.000
243665.900,441202.500,709333.400,709790.900,709499.200,709501.300,709895.300,709703.600,0.000
243700.600,441265.500,709336.900,709794.500,709502.300,709504.700,709898.500,709707.200,0.000
243652.300,441048.500,709330.800,709788.400,709496.500,709498.600,709892.600,709701.100,0.000
243574.900,440613.300,709323.200,709781.100,709489.000,709491.500,709885.100,709693.400,0.000
243582.900,440335.900,709324.900,709782.300,709490.400,709492.800,709886.200,709694.800,0.000
243672.800,440370.800,709334.800,709792.400,709500.600,709502.900,709896.600,709705.200,0.000
243704.300,440431.200,709336.100,709793.800,709502.200,709504.200,709898.300,709706.300,0.000
243642.600,440212.300,709332.100,709789.800,709497.700,709500.100,709893.800,709702.300,0.000
243562.800,439781.900,709324.600,709782.400,709490.200,709492.600,709886.500,709695.000,0.000
243571.600,439520.500,709324.500,709782.200,709489.900,709492.600,709886.400,709694.600,0.000
243652.000,439559.300,709331.800,709789.400,709497.400,709499.600,709893.900,709701.600,0.000
243698.200,439643.300,709338.300,709795.900,709503.500,709506.200,709900.200,709708.000,0.000
243633.000,439421.200,709329.600,709787.200,709495.100,709497.800,709891.300,709699.400,0.000
243554.500,438999.300,709321.000,709778.500,709486.800,709489.000,709882.700,709691.000,0.000
243575.800,438751.300,709327.100,709784.700,709492.600,709495.100,709888.700,709697.100,0.000
243668.800,438798.400,709337.600,709795.300,709503.100,709505.800,709899.100,709707.400,0.000
243701.400,438869.200,709335.400,709792.900,709500.600,709503.100,709897.200,709704.700,0.000
243633.400,438648.100,709325.800,709783.200,709491.300,709493.900,709887.300,709695.400,0.000
243564.600,438238.800,709321.800,709779.300,709487.100,709489.800,709883.300,709691.500,0.000
243579.800,437995.300,709324.100,709781.600,709489.400,709491.900,709885.400,709693.700,0.000
243654.000,438037.700,709329.700,709787.600,709495.200,709497.700,709891.700,709699.500,0.000
243698.300,438128.100,709333.200,709790.900,709498.500,709501.100,709894.900,709702.900,0.000
243634.600,437914.200,709327.100,709784.500,709492.600,709495.200,709888.700,709696.600,0.000
243551.700,437484.800,709318.300,709775.900,709484.000,709486.300,709879.800,709688.100,0.000
243575.000,437242.200,709321.200,709779.100,709487.100,709488.900,709882.900,709690.800,0.000
243658.000,437292.100,709326.000,709784.300,709492.300,709494.400,709888.400,709696.100,0.000
243693.200,437376.200,709326.600,709784.600,709492.100,709494.800,709888.300,709696.400,0.000
243651.200,437188.700,709324.600,709782.900,709490.600,709493.400,709886.400,709694.600,0.000
243575.700,436773.000,709316.400,709774.600,709482.300,709484.800,709877.900,709686.300,0.000
243588.600,436529.900,709318.000,709775.600,709483.800,709486.300,709879.800,709687.700,0.000
243677.700,436594.200,709326.800,709784.400,709492.500,709495.200,709888.900,709696.900,0.000
243711.200,436681.100,709326.800,709784.400,709492.500,709495.100,709888.600,709696.500,0.000
243657.500,436490.300,709322.200,709779.900,709487.900,709490.400,709883.800,709691.800,0.000
243586.100,436083.900,709315.100,709772.600,709480.400,709482.800,709876.600,709684.600,0.000
243595.800,435832.100,709313.300,709770.800,709478.900,709481.400,709874.700,709683.000,0.000
243687.900,435900.400,709324.300,709782.000,709489.400,709492.700,709885.900,709694.100,0.000
243725.700,435990.200,709328.700,709786.200,709493.900,709496.900,709889.800,709698.600,0.000
243652.700,435782.000,709322.400,709779.900,709487.900,709490.600,709883.900,709692.100,0.000
243566.200,435370.700,709310.800,709768.600,709476.500,709479.200,709872.500,709680.700,0.000
243586.300,435133.300,709312.400,709770.100,709477.800,709480.800,709873.800,709682.100,0.000
243676.000,435197.500,709319.900,709777.400,709485.000,709488.300,709881.300,709689.200,0.000
243714.900,435293.300,709319.900,709778.000,709485.800,709488.300,709881.700,709689.800,0.000
243672.800,435130.400,709317.900,709776.000,709484.000,709486.500,709879.800,709688.100,0.000
243587.300,434724.600,709308.600,709766.600,709474.300,709476.800,709870.200,709678.600,0.000
243603.700,434497.000,709314.300,709772.200,709479.900,709482.500,709875.900,709684.100,0.000
243682.000,434567.800,709320.100,709778.000,709486.100,709488.600,709881.700,709690.200,0.000
243711.300,434666.000,709319.900,709777.700,709485.900,709488.500,709881.900,709690.400,0.000
243648.400,434485.700,709314.100,709772.400,709480.100,709482.500,709875.600,709683.800,0.000
243580.900,434102.700,709311.800,709769.700,709477.700,709480.100,709873.000,709681.100,0.000
243600.000,433873.000,709314.900,709773.300,709481.000,709483.600,709877.400,709685.000,0.000
243678.800,433935.700,709321.100,709779.600,709487.700,709489.800,709883.400,709691.300,0.000
243705.600,434026.300,709319.400,709777.400,709485.900,709488.100,709881.300,709689.600,0.000
243644.900,433839.300,709313.300,709771.300,709479.200,709482.100,709875.000,709683.200,0.000
243579.800,433461.900,709308.300,709765.600,709473.800,709476.500,709869.800,709677.700,0.000
243589.900,433228.200,709310.000,709767.400,709475.900,709478.300,709871.700,709679.800,0.000
243659.000,433280.400,709312.900,709770.800,709478.400,709480.800,709874.600,709682.600,0.000
243684.500,433376.100,709312.000,709769.900,709477.900,709480.300,709873.800,709682.100,0.000
243643.000,433221.900,709310.800,709768.400,709476.900,709479.200,709872.400,709680.700,0.000
243589.900,432864.300,709311.400,709769.400,709477.800,709480.300,709873.600,709681.500,0.000
243608.400,432638.500,709316.900,709774.800,709483.200,709485.200,709879.400,709687.100,0.000
243683.600,432699.900,709322.600,709780.100,709488.500,709490.400,709884.600,709692.100,0.000
243713.100,432805.700,709320.400,709777.600,709485.600,709487.900,709881.900,709689.800,0.000
243655.300,432640.200,709314.100,709771.400,709479.600,709481.600,709875.700,709683.900,0.000
243586.300,432261.500,709307.500,709765.000,709473.800,709475.600,709869.600,709677.800,0.000
243599.400,432035.800,709309.900,709767.000,709476.100,709478.200,709872.100,709680.000,0.000
243671.900,432101.800,709313.800,709770.600,709479.200,709481.800,709875.000,709683.500,0.000
243708.400,432222.100,709312.900,709770.100,709478.300,709481.300,709873.900,709682.500,0.000
243651.500,432063.700,709307.100,709764.400,709472.500,709475.100,709868.000,709676.400,0.000
243574.100,431689.300,709302.300,709759.500,709468.200,709470.500,709863.800,709671.900,0.000
243600.500,431484.100,709310.500,709767.200,709476.100,709478.600,709871.600,709679.400,0.000
243668.300,431544.900,709315.400,709771.900,709480.800,709483.600,709876.500,709684.400,0.000
243711.200,431670.200,709319.100,709775.500,709484.400,709486.700,709879.800,709688.200,0.000
243651.400,431507.500,709310.800,709767.500,709476.400,709478.400,709871.800,709680.300,0.000
243578.200,431138.300,709303.900,709761.200,709469.800,709471.800,709865.600,709673.800,0.000
243583.600,430910.600,709305.200,709762.800,709471.300,709472.800,709866.900,709675.000,0.000
243657.100,430986.300,709310.000,709767.500,709476.500,709478.000,709871.800,709679.600,0.000
243707.600,431124.000,709314.300,709771.600,709480.400,709482.300,709876.000,709684.000,0.000
243642.300,430962.800,709306.200,709763.500,709472.200,709474.600,709867.800,709676.100,0.000
243554.800,430586.700,709296.800,709754.300,709462.800,709465.500,709858.900,709666.900,0.000
243551.800,430357.000,709295.400,709753.100,709461.200,709463.900,709857.300,709665.500,0.000
243629.700,430438.400,709300.600,709757.700,709466.200,709468.600,709861.900,709669.900,0.000
243670.500,430573.300,709305.900,709763.100,709471.600,709474.300,709867.600,709675.000,0.000
243610.600,430426.700,709302.100,709759.600,709468.200,709470.300,709864.000,709671.600,0.000
243541.000,430068.000,709298.100,709755.400,709464.400,709466.400,709859.900,709667.800,0.000
243553.800,429844.900,709302.100,709759.000,709467.900,709470.000,709863.400,709671.300,0.000
243652.200,429946.200,709311.900,709769.100,709477.800,709479.900,709873.200,709681.300,0.000
243703.600,430090.400,709317.800,709774.900,709483.600,709485.400,709879.400,709687.500,0.000
243645.400,429943.500,709310.800,709767.800,709476.400,709478.300,709872.100,709680.100,0.000
243562.600,429571.800,709302.700,709759.800,709468.400,709470.700,709864.100,709671.800,0.000
243564.600,429349.500,709302.700,709760.200,709468.600,709471.100,709864.500,709671.900,0.000
243635.200,429431.000,709309.300,709766.600,709475.300,709477.700,709870.900,709678.800,0.000
243672.800,429577.400,709313.300,709770.600,709479.300,709481.300,709874.700,709682.800,0.000
243601.100,429426.800,709304.800,709762.100,709470.600,709472.900,709866.500,709674.200,0.000
243534.800,429080.000,709301.900,709759.600,709467.600,709470.100,709863.800,709671.300,0.000
243540.000,428863.000,709304.100,709761.600,709469.900,709472.300,709865.700,709673.400,0.000
243618.800,428949.500,709312.200,709769.900,709478.300,709481.000,709873.900,709681.900,0.000
243653.300,429084.500,709313.400,709771.200,709479.600,709481.900,709874.900,709683.200,0.000
243582.700,428931.800,709303.800,709761.400,709469.900,709471.900,709865.700,709673.800,0.000
243511.500,428577.700,709300.200,709757.900,709466.400,709468.300,709862.100,709670.100,0.000
243523.900,428363.300,709302.600,709759.800,709468.200,709470.700,709863.900,709672.300,0.000
243594.500,428443.400,709307.200,709764.500,709472.800,709475.600,709868.600,709676.900,0.000
243637.700,428587.400,709311.400,709769.100,709477.300,709479.700,709872.900,709681.400,0.000
243581.700,428447.400,709306.400,709764.100,709472.400,709475.200,709868.400,709676.600,0.000
243508.500,428092.100,709300.000,709757.600,709466.100,709468.400,709861.900,709669.400,0.000
243515.700,427883.000,709301.200,709758.800,709467.000,709469.600,709862.800,709670.500,0.000
243589.500,427973.300,709305.800,709763.100,709471.500,709473.600,709866.900,709675.100,0.000
243635.900,428124.700,709307.000,709764.200,709472.800,709475.200,709868.400,709676.500,0.000
243593.200,428004.900,709304.100,709761.400,709469.700,709472.100,709865.300,709673.400,0.000
243527.700,427661.500,709300.200,709757.600,709466.100,709468.400,709861.800,709670.100,0.000
243537.600,427457.400,709303.300,709760.900,709469.400,709471.500,709865.100,709673.100,0.000
243616.200,427552.200,709311.100,709768.100,709477.100,709478.900,709872.400,709680.600,0.000
243651.600,427699.600,709313.300,709770.300,709479.000,709481.100,709874.400,709682.600,0.000
243584.700,427564.100,709305.000,709761.900,709470.300,709472.900,709866.100,709674.100,0.000
243491.800,427192.700,709293.800,709750.900,709459.100,709461.800,709854.900,709662.900,0.000
243513.100,426996.800,709298.400,709755.400,709463.400,709466.500,709859.500,709667.600,0.000
243603.000,427101.400,709307.300,709764.300,709472.600,709475.300,709868.300,709676.600,0.000
243639.900,427246.100,709309.300,709766.100,709474.400,709477.200,709870.100,709678.200,0.000
243573.300,427102.400,709300.800,709757.500,709465.400,709468.800,709861.600,709669.600,0.000
243489.500,426745.000,709292.800,709749.900,709458.000,709461.200,709854.100,709661.900,0.000
243514.600,426559.200,709299.900,709757.100,709465.300,709468.200,709861.200,709669.400,0.000
243587.400,426650.300,709305.900,709763.100,709471.400,709473.900,709867.100,709675.400,0.000
243631.100,426803.200,709308.300,709765.400,709474.200,709476.400,709870.100,709677.900,0.000
243574.800,426672.800,709300.600,709758.100,709466.600,709469.200,709862.500,709670.400,0.000
243504.900,426330.000,709296.300,709753.200,709461.600,709464.200,709857.600,709665.300,0.000
243519.500,426130.700,709296.300,709753.100,709461.700,709464.200,709857.400,709665.100,0.000
243599.100,426224.900,709303.800,709760.800,709469.400,709471.800,709865.100,709673.100,0.000
243633.000,426370.700,709304.600,709761.600,709470.000,709472.600,709865.900,709673.600,0.000
243571.300,426237.200,709297.100,709753.900,709462.800,709465.300,709858.400,709666.100,0.000
243502.000,425896.100,709290.900,709747.900,709456.800,709459.400,709853.100,709660.300,0.000
243519.900,425701.000,709295.900,709753.400,709462.200,709464.900,709858.200,709665.800,0.000
243598.000,425797.300,709304.400,709761.800,709470.400,709473.300,709866.400,709673.900,0.000
243635.100,425945.400,709305.800,709763.300,709471.900,709474.400,709867.800,709675.600,0.000
243564.800,425807.900,709296.100,709753.200,709461.900,709464.800,709857.800,709666.100,0.000
243494.700,425463.100,709291.800,709748.900,709457.400,709460.400,709853.500,709661.300,0.000
243518.100,425274.100,709298.800,709755.900,709464.900,709467.500,709860.500,709668.400,0.000
243588.800,425362.800,709303.900,709761.200,709469.700,709472.300,709865.600,709673.400,0.000
243631.700,425520.300,709306.400,709763.800,709472.000,709474.700,709868.100,709676.300,0.000
243589.400,425419.300,709305.400,709762.600,709470.900,709473.800,709866.900,709674.800,0.000
243503.800,425076.300,709297.700,709755.300,709464.000,709466.500,709859.600,709667.400,0.000
243495.800,424868.900,709294.300,709751.600,709460.600,709463.000,709856.300,709664.100,0.000
243567.600,424963.100,709298.500,709755.400,709464.900,709467.600,709860.500,709668.600,0.000
243608.700,425121.000,709300.200,709757.400,709466.300,709469.100,709861.900,709669.800,0.000
243555.300,425012.000,709297.700,709754.800,709463.600,709465.900,709859.200,709667.000,0.000
243478.700,424672.900,709290.300,709747.100,709456.400,709458.500,709852.100,709659.700,0.000
243480.800,424463.600,709287.900,709745.100,709453.700,709456.300,709849.700,709657.600,0.000
243567.000,424567.500,709292.700,709749.600,709458.800,709461.300,709854.800,709662.400,0.000
243621.200,424733.700,709299.300,709756.100,709465.300,709468.000,709861.100,709668.600,0.000
243579.600,424632.600,709298.100,709755.600,709464.400,709466.800,709859.900,709667.500,0.000
243502.100,424297.700,709294.100,709751.600,709460.100,709462.900,709856.100,709663.700,0.000
243502.100,424086.700,709294.000,709751.300,709459.700,709462.400,709855.700,709663.400,0.000
243569.500,424177.000,709299.600,709756.700,709465.400,709468.100,709861.300,709668.400,0.000
243605.200,424340.400,709301.100,709758.100,709466.500,709469.400,709862.100,709669.800,0.000
243558.600,424241.200,709297.000,709754.100,709462.400,709465.400,709858.400,709665.900,0.000
243490.200,423911.000,709293.400,709750.200,709458.900,709461.700,709854.700,709662.200,0.000
243499.800,423712.600,709293.900,709751.000,709459.500,709462.200,709855.300,709663.200,0.000
243588.300,423823.200,709301.800,709759.400,709468.000,709470.800,709863.800,709671.300,0.000
243628.700,423985.600,709301.800,709759.300,709468.200,709470.700,709863.800,709671.600,0.000
243571.600,423881.600,709297.100,709754.400,709463.400,709465.700,709859.100,709666.700,0.000
243499.700,423560.000,709290.800,709748.000,709456.800,709459.500,709852.800,709660.300,0.000
243510.700,423363.600,709294.300,709751.700,709460.300,709463.000,709856.200,709663.600,0.000
243582.300,423462.700,709300.800,709758.300,709466.900,709469.600,709862.600,709670.100,0.000
243616.400,423624.500,709301.200,709758.300,709467.000,709469.500,709862.900,709670.300,0.000
243572.600,423530.000,709297.700,709754.600,709463.600,709465.900,709859.200,709666.700,0.000
243498.300,423193.900,709291.900,709748.900,709457.900,709460.300,709853.400,709661.100,0.000
243503.900,422992.100,709291.700,709748.600,709458.000,709460.300,709853.800,709661.200,0.000
243592.200,423108.300,709299.800,709756.900,709466.100,709468.400,709862.100,709669.000,0.000
243637.300,423281.700,709300.200,709757.700,709466.200,709469.000,709862.300,709669.200,0.000
243586.100,423184.200,709293.800,709751.000,709460.100,709462.600,709855.800,709663.400,0.000
243499.000,422843.700,709286.000,709743.200,709452.200,709455.100,709847.700,709655.300,0.000
243508.700,422650.800,709289.800,709747.600,709456.300,709459.000,709851.800,709659.500,0.000
243600.900,422777.400,709300.100,709757.500,709466.600,709469.100,709862.200,709669.800,0.000
243640.600,422945.000,709301.600,709758.800,709468.400,709470.400,709863.900,709671.100,0.000
243584.900,422843.500,709296.200,709753.300,709462.600,709464.600,709858.000,709665.100,0.000
243499.100,422512.600,709286.800,709744.200,709453.100,709455.700,709848.400,709656.000,0.000
243509.800,422320.900,709290.900,709748.200,709457.000,709459.400,709852.400,709659.900,0.000
243586.600,422418.800,709294.400,709751.900,709460.400,709463.100,709856.200,709663.700,0.000
243649.100,422611.000,709299.600,709756.700,709465.500,709468.200,709861.400,709668.400,0.000
243598.100,422512.900,709297.000,709754.100,709463.200,709465.600,709858.700,709665.800,0.000
243518.300,422177.800,709291.400,709748.600,709457.200,709459.800,709852.800,709660.100,0.000
243518.300,421980.000,709291.100,709748.300,709457.200,709459.500,709852.800,709660.300,0.000
243584.200,422082.000,709295.400,709752.600,709461.400,709463.900,709857.400,709664.700,0.000
243625.500,422256.100,709296.800,709753.800,709462.800,709465.300,709859.100,709666.100,0.000
243567.900,422161.600,709288.800,709746.100,709454.800,709457.400,709851.000,709657.800,0.000
243482.700,421833.300,709280.300,709737.800,709446.300,709449.700,709842.600,709649.600,0.000
243494.800,421645.000,709286.900,709744.600,709453.300,709456.300,709849.300,709656.500,0.000
243577.100,421762.200,709293.800,709751.200,709460.100,709463.000,709855.800,709663.400,0.000
243627.200,421949.400,709300.200,709757.300,709466.400,709469.300,709862.100,709669.500,0.000
243569.900,421852.600,709292.700,709749.800,709458.900,709461.500,709854.400,709661.500,0.000
243481.700,421514.000,709284.200,709740.800,709450.300,709452.600,709845.400,709652.800,0.000
243493.500,421322.300,709288.600,709745.600,709454.300,709456.800,709850.100,709657.100,0.000
243559.600,421422.800,709291.500,709748.500,709457.000,709459.900,709852.800,709660.400,0.000
243594.500,421599.500,709292.500,709750.100,709459.300,709461.900,709854.600,709661.900,0.000
243554.100,421520.200,709294.100,709751.600,709460.400,709463.400,709856.300,709663.400,0.000
243481.200,421200.100,709289.400,709746.900,709455.400,709458.100,709851.100,709658.400,0.000
243483.700,421004.000,709290.600,709748.000,709456.600,709459.400,709852.400,709659.800,0.000
243561.000,421112.100,709297.400,709754.800,709463.600,709466.300,709859.200,709666.800,0.000
243594.500,421276.900,709296.000,709752.900,709462.000,709464.400,709857.600,709664.600,0.000
243540.800,421190.800,709290.800,709747.800,709456.800,709459.600,709852.400,709659.500,0.000
243471.300,420889.400,709288.900,709746.300,709455.300,709458.000,709850.900,709658.000,0.000
243487.200,420711.800,709294.800,709751.900,709460.900,709464.000,709856.900,709664.000,0.000
243559.300,420819.300,709301.900,709759.200,709467.900,709471.100,709863.800,709671.100,0.000
243593.100,420996.800,709302.300,709759.800,709468.600,709471.600,709864.400,709671.300,0.000
243540.400,420921.200,709298.500,709756.200,709464.900,709467.200,709860.700,709667.500,0.000
243455.200,420599.600,709291.900,709749.000,709457.800,709460.300,709853.100,709660.600,0.000
243449.100,420395.500,709291.500,709748.200,709457.600,709460.300,709852.800,709659.900,0.000
243518.500,420489.400,709295.800,709752.400,709461.700,709464.400,709857.100,709664.300,0.000
243567.600,420675.800,709297.700,709754.400,709463.600,709466.100,709859.500,709666.400,0.000
243520.900,420596.700,709291.500,709748.500,709457.100,709459.800,709852.800,709660.400,0.000
243443.900,420284.300,709285.100,709742.300,709450.900,709453.500,709846.800,709653.500,0.000
243458.300,420103.500,709287.800,709744.400,709453.300,709456.300,709848.900,709655.900,0.000
243539.500,420209.300,709297.300,709754.100,709463.000,709465.900,709858.700,709665.600,0.000
243584.900,420396.200,709300.100,709757.300,709465.900,709468.600,709861.500,709668.600,0.000
243523.500,420314.600,709292.300,709749.100,709458.000,709460.800,709853.500,709660.900,0.000
243430.500,419982.900,709281.500,709737.900,709447.000,709449.900,709842.600,709649.900,0.000
243433.300,419791.800,709281.800,709738.600,709447.600,709450.300,709843.000,709650.100,0.000
243523.600,419919.800,709291.900,709748.600,709457.600,709460.500,709853.300,709660.700,0.000
243576.700,420118.600,709297.800,709754.600,709463.900,709466.600,709859.300,709666.900,0.000
243530.400,420047.200,709293.300,709750.200,709459.100,709461.800,709854.700,709662.300,0.000
243434.900,419716.700,709279.400,709736.100,709445.100,709447.900,709840.600,709648.200,0.000
243430.900,419517.100,709278.600,709735.400,709444.300,709447.300,709839.700,709647.600,0.000
243500.400,419621.100,709286.400,709743.600,709452.400,709455.400,709847.600,709655.600,0.000
243550.700,419812.800,709293.100,709750.100,709459.100,709461.800,709854.000,709662.200,0.000
243523.300,419764.800,709296.200,709753.100,709462.100,709464.800,709857.400,709664.900,0.000
243439.400,419451.400,709289.600,709747.100,709455.600,709458.600,709851.300,709658.400,0.000
243428.500,419245.400,709285.500,709743.000,709451.800,709454.300,709847.400,709654.300,0.000
243511.800,419365.800,709291.800,709749.400,709458.500,709461.100,709853.800,709660.900,0.000
243567.800,419565.400,709297.600,709755.000,709463.900,709466.600,709859.500,709666.400,0.000
243527.100,419501.900,709296.100,709753.600,709462.400,709465.100,709857.900,709664.900,0.000
243447.300,419194.500,709290.600,709747.600,709456.600,709459.100,709851.900,709659.300,0.000
243438.900,418993.800,709288.800,709745.700,709455.100,709457.600,709850.400,709657.600,0.000
243506.100,419098.300,709292.600,709749.600,709458.700,709461.300,709853.600,709661.700,0.000
243549.000,419286.000,709293.700,709750.800,709459.700,709462.300,709855.100,709662.400,0.000
243502.400,419215.000,709291.200,709748.400,709457.400,709459.600,709852.600,709659.800,0.000
243431.000,418904.100,709287.300,709744.400,709453.600,709455.700,709848.900,709656.000,0.000
243433.000,418712.200,709288.000,709745.300,709454.300,709456.400,709849.900,709656.600,0.000
243510.700,418831.400,709294.800,709751.800,709461.200,709463.600,709856.800,709663.400,0.000
243552.500,419023.800,709295.300,709752.400,709461.300,709464.300,709857.100,709664.500,0.000
243506.200,418951.500,709291.000,709748.800,709457.300,709459.900,709852.800,709659.900,0.000
243433.000,418649.200,709287.100,709744.400,709453.700,709456.000,709848.700,709655.900,0.000
243424.300,418453.100,709288.600,709746.000,709455.300,709457.600,709850.400,709657.400,0.000
243502.100,418567.600,709295.400,709752.500,709461.500,709464.000,709856.900,709663.800,0.000
243552.700,418765.100,709300.600,709757.400,709466.500,709468.900,709861.900,709668.600,0.000
243493.100,418687.900,709290.400,709747.400,709456.400,709459.000,709852.300,709658.700,0.000
243413.800,418379.200,709283.800,709740.600,709449.400,709451.900,709845.100,709651.900,0.000
243415.500,418187.100,709283.800,709740.700,709449.600,709452.400,709845.100,709652.100,0.000
243497.600,418307.400,709291.500,709748.400,709457.100,709460.100,709852.800,709659.700,0.000
243551.700,418516.800,709295.300,709752.300,709461.200,709463.900,709856.500,709663.600,0.000
243507.300,418457.300,709292.300,709749.100,709458.100,709460.300,709853.300,709660.300,0.000
243418.800,418140.700,709283.400,709740.000,709449.400,709451.800,709844.800,709651.500,0.000
243423.800,417953.300,709286.100,709743.300,709452.600,709454.700,709848.200,709654.400,0.000
243506.900,418069.100,709295.100,709752.300,709460.900,709463.700,709856.800,709663.100,0.000
243553.500,418260.800,709297.600,709754.900,709463.400,709466.900,709859.300,709666.100,0.000
243497.100,418180.600,709290.400,709747.400,709456.800,709459.300,709852.200,709659.100,0.000
243414.400,417868.000,709284.000,709740.900,709450.200,709452.400,709845.600,709652.300,0.000
243425.400,417691.400,709289.100,709746.600,709455.500,709457.900,709850.700,709657.400,0.000
243498.900,417802.800,709294.000,709751.800,709460.400,709463.000,709856.100,709662.900,0.000
243542.200,417994.300,709296.500,709754.000,709462.800,709465.300,709858.300,709665.300,0.000
243505.100,417938.800,709294.000,709751.400,709459.900,709462.800,709855.800,709662.600,0.000
243420.300,417622.300,709286.300,709743.600,709451.900,709455.300,709848.100,709654.900,0.000
243412.400,417416.300,709283.300,709740.900,709449.900,709452.400,709845.100,709652.200,0.000
243494.800,417543.800,709291.600,709749.000,709458.000,709460.700,709853.300,709660.100,0.000
243540.100,417753.500,709296.400,709753.200,709462.200,709465.100,709857.800,709664.300,0.000
243485.800,417688.300,709291.400,709748.200,709457.800,709460.100,709852.800,709659.800,0.000
243402.400,417384.300,709283.800,709740.900,709450.300,709452.700,709845.100,709652.600,0.000
243394.400,417191.600,709281.900,709738.900,709448.600,709450.800,709843.400,709650.600,0.000
243473.000,417315.400,709291.100,709748.100,709457.600,709459.400,709852.800,709660.100,0.000
243519.000,417521.800,709294.000,709751.100,709460.600,709462.600,709855.800,709662.800,0.000
243476.600,417468.400,709290.400,709747.100,709456.800,709458.400,709851.800,709658.600,0.000
243395.100,417160.400,709281.800,709738.900,709448.200,709450.100,709842.900,709649.900,0.000
243388.100,416960.000,709281.600,709738.600,709448.100,709450.500,709843.000,709650.100,0.000
243470.000,417081.200,709291.700,709748.800,709458.400,709460.400,709853.500,709660.500,0.000
243515.000,417280.500,709294.000,709750.700,709459.900,709461.800,709855.100,709661.800,0.000
243460.800,417215.500,709287.100,709743.900,709453.300,709455.500,709848.700,709655.100,0.000
243383.600,416921.800,709282.500,709738.900,709448.300,709450.800,709843.900,709650.400,0.000
243362.200,416714.200,709278.200,709735.100,709444.100,709447.000,709839.700,709646.600,0.000
243448.200,416840.200,709287.400,709744.100,709453.600,709456.100,709848.400,709655.400,0.000
243522.200,417070.400,709297.100,709753.700,709463.600,709465.900,709858.700,709665.100,0.000
243480.300,417022.300,709294.600,709751.600,709461.300,709463.700,709856.500,709662.900,0.000
243407.300,416729.300,709289.600,709747.100,709456.800,709458.800,709851.800,709658.000,0.000
243394.100,416530.200,709287.100,709744.800,709454.100,709455.900,709849.100,709655.400,0.000
243467.400,416651.500,709293.600,709751.000,709460.300,709462.300,709855.500,709662.300,0.000
243520.100,416861.900,709297.700,709755.200,709464.500,709467.300,709859.900,709666.500,0.000
243468.000,416806.900,709291.800,709749.000,709458.500,709460.800,709853.400,709659.900,0.000
243391.100,416509.000,709285.600,709742.800,709452.400,709454.600,709847.400,709654.000,0.000
243389.000,416318.600,709285.500,709743.100,709452.800,709454.700,709847.600,709654.100,0.000
243460.200,416431.300,709290.200,709747.900,709457.200,709459.100,709852.200,709658.600,0.000
243510.200,416637.700,709293.600,709750.900,709460.500,709462.100,709855.300,709661.800,0.000
243451.500,416570.600,709286.500,709743.400,709453.000,709455.500,709848.000,709654.400,0.000
243374.200,416270.900,709280.200,709736.900,709446.300,709448.900,709841.400,709648.000,0.000
243383.200,416089.000,709283.200,709740.900,709449.800,709452.600,709844.900,709651.400,0.000
243458.300,416196.800,709290.300,709747.800,709456.800,709459.500,709852.400,709658.900,0.000
243511.500,416412.300,709293.800,709751.300,709460.600,709462.800,709856.200,709662.400,0.000
243449.800,416353.800,709283.800,709740.800,709449.900,709452.300,709845.400,709651.800,0.000
243372.300,416061.000,709275.500,709732.600,709441.600,709444.500,709837.300,709643.900,0.000
243381.700,415885.600,709278.400,709735.300,709444.800,709447.000,709839.900,709646.800,0.000
243444.600,415989.100,709281.600,709739.400,709447.900,709450.600,709843.300,709649.900,0.000
243504.000,416208.500,709286.300,709744.600,709453.100,709455.900,709848.300,709654.700,0.000
243455.300,416165.900,709284.100,709741.600,709450.100,709452.600,709845.600,709651.900,0.000
243365.600,415870.700,709277.100,709734.200,709442.900,709445.300,709838.300,709644.900,0.000
243359.400,415689.000,709280.400,709737.900,709446.800,709449.300,709842.400,709648.600,0.000
243443.700,415817.000,709290.400,709748.000,709456.800,709459.000,709852.000,709658.700,0.000
243503.200,416029.600,709297.100,709754.100,709463.600,709465.800,709858.900,709665.100,0.000
243463.600,415980.800,709291.800,709748.900,709458.200,709460.600,709853.400,709659.900,0.000
243378.100,415678.400,709282.900,709740.000,709449.400,709451.800,709844.800,709651.000,0.000
243366.700,415476.000,709280.800,709738.200,709447.400,709450.200,709842.900,709649.300,0.000
243442.300,415599.000,709287.400,709744.800,709453.900,709456.500,709849.100,709655.800,0.000
243492.900,415812.200,709291.400,709748.800,709458.000,709460.800,709853.400,709660.100,0.000
243449.200,415773.200,709288.800,709746.000,709455.400,709458.200,709850.500,709657.300,0.000
243373.900,415485.100,709282.500,709739.600,709448.900,709451.400,709843.900,709650.800,0.000
243367.300,415293.000,709280.300,709737.500,709446.900,709449.400,709841.600,709648.600,0.000
243447.500,415412.800,709289.200,709746.400,709455.900,709458.400,709851.100,709657.600,0.000
243488.800,415609.200,709287.400,709744.600,709453.900,709456.500,709848.900,709655.700,0.000
243443.300,415570.600,709283.100,709740.300,709449.600,709452.100,709844.600,709651.500,0.000
243385.300,415302.000,709282.600,709739.800,709449.300,709451.600,709844.300,709651.200,0.000
243382.500,415108.600,709282.900,709739.800,709449.600,709452.000,709844.700,709651.300,0.000
243456.800,415225.300,709289.100,709746.100,709456.100,709458.500,709850.900,709657.400,0.000
243505.400,415438.600,709291.400,709748.900,709458.400,709460.900,709853.600,709659.900,0.000
243452.100,415392.500,709286.900,709744.300,709453.500,709456.200,709849.100,709655.100,0.000
243357.500,415078.700,709278.100,709735.700,709445.500,709447.800,709840.600,709646.800,0.000
243361.500,414892.800,709281.700,709738.900,709448.700,709451.200,709843.900,709649.900,0.000
243432.300,415010.000,709285.700,709742.900,709452.400,709455.100,709847.600,709653.900,0.000
243492.800,415239.200,709291.400,709748.800,709458.100,709461.100,709853.300,709659.900,0.000
243454.200,415209.900,709288.100,709745.600,709455.100,709457.900,709850.400,709656.600,0.000
243365.300,414910.300,709278.600,709735.900,709445.600,709448.300,709840.800,709647.300,0.000
243355.900,414710.400,709280.000,709737.100,709446.900,709449.400,709841.800,709648.300,0.000
243438.000,414831.700,709289.400,709746.500,709456.100,709459.000,709851.500,709657.800,0.000
243488.800,415050.300,709289.800,709747.100,709456.800,709459.300,709851.900,709658.100,0.000
243436.700,415011.900,709283.200,709740.300,709449.500,709452.100,709845.100,709651.500,0.000
243353.200,414723.300,709276.600,709734.000,709443.300,709445.600,709838.900,709644.900,0.000
243341.900,414526.800,709274.900,709732.100,709442.000,709444.100,709837.200,709643.600,0.000
243419.800,414645.100,709282.900,709739.600,709449.500,709452.100,709844.500,709651.500,0.000
243476.200,414864.600,709285.300,709742.400,709451.800,709454.100,709846.600,709653.500,0.000
243453.700,414850.600,709286.400,709744.000,709453.600,709455.900,709848.500,709655.100,0.000
243376.900,414563.500,709279.300,709736.800,709446.600,709448.800,709841.200,709647.700,0.000
243360.700,414350.800,709275.700,709732.800,709442.700,709444.900,709837.400,709644.300,0.000
243433.600,414458.400,709285.100,709741.700,709452.100,709453.800,709846.600,709653.100,0.000
243485.100,414681.600,709290.300,709747.400,709457.400,709459.700,709852.000,709658.600,0.000
243427.800,414640.500,709283.500,709740.700,709450.500,709452.900,709844.900,709651.500,0.000
243340.900,414350.800,709276.400,709733.600,709443.400,709445.800,709837.900,709644.900,0.000
243331.900,414158.000,709276.300,709733.100,709443.600,709445.800,709838.100,709644.900,0.000
243408.500,414279.200,709283.600,709740.500,709450.500,709453.000,709845.500,709651.800,0.000
243466.300,414509.500,709288.300,709745.200,709455.100,709457.800,709850.100,709656.200,0.000
243419.200,414471.000,709284.800,709741.800,709452.100,709454.500,709846.900,709653.000,0.000
243350.000,414191.800,709281.100,709738.800,709448.700,709450.900,709844.100,709650.100,0.000
243354.500,414009.100,709281.500,709738.900,709448.500,709450.800,709843.700,709649.900,0.000
243426.900,414118.500,709286.700,709743.800,709453.700,709455.900,709848.300,709655.300,0.000
243483.000,414341.800,709291.900,709748.800,709459.000,709461.100,709853.700,709660.600,0.000
243439.800,414310.600,709286.800,709743.900,709453.700,709455.900,709848.800,709655.300,0.000
243359.500,414022.500,709279.100,709736.300,709445.900,709448.300,709840.900,709647.300,0.000
243346.000,413819.200,709277.300,709734.200,709443.700,709446.400,709838.900,709645.100,0.000
243422.500,413932.300,709284.900,709741.100,709450.800,709453.700,709846.000,709652.400,0.000
243488.600,414162.400,709292.300,709748.500,709458.500,709460.900,709853.400,709660.300,0.000
243426.000,414108.900,709282.500,709738.800,709448.800,709451.200,709843.700,709650.700,0.000
243342.900,413817.600,709276.400,709733.600,709443.300,709445.800,709838.300,709644.600,0.000
243344.600,413626.600,709279.000,709736.400,709446.300,709448.900,709841.000,709647.300,0.000
243425.100,413745.800,709286.900,709744.100,709453.800,709456.600,709848.800,709655.400,0.000
243485.900,413973.700,709291.300,709748.600,709458.600,709461.100,709853.800,709660.300,0.000
243444.900,413950.700,709287.900,709745.100,709455.300,709457.600,709850.300,709656.800,0.000
243352.100,413651.500,709278.000,709735.100,709445.000,709447.800,709840.300,709647.000,0.000
243339.300,413450.100,709277.500,709734.000,709444.400,709447.000,709839.300,709645.700,0.000
243408.500,413556.000,709283.600,709739.800,709450.700,709453.100,709845.300,709652.000,0.000
243464.300,413785.000,709286.300,709742.800,709453.200,709455.900,709847.700,709654.300,0.000
243418.600,413765.200,709281.100,709737.100,709447.800,709450.300,709842.400,709649.100,0.000
243337.000,413482.100,709275.300,709731.500,709442.100,709444.700,709836.800,709643.600,0.000
243338.500,413292.300,709278.100,709734.400,709444.800,709447.600,709839.900,709646.300,0.000
243424.300,413415.700,709288.800,709745.200,709455.600,709458.400,709850.600,709657.100,0.000
243474.800,413636.100,709290.600,709747.500,709457.800,709460.300,709852.600,709659.300,0.000
243428.400,413605.700,709284.300,709740.900,709451.200,709453.800,709846.200,709652.800,0.000
243341.700,413306.900,709277.800,709734.200,709444.300,709447.400,709839.400,709645.900,0.000
243322.900,413103.500,709274.400,709731.100,709440.800,709443.700,709836.600,709642.600,0.000
243405.700,413226.600,709282.300,709739.300,709448.900,709451.400,709844.400,709650.800,0.000
243476.800,413466.000,709289.600,709746.900,709456.800,709459.400,709851.900,709658.300,0.000
243419.200,413426.200,709280.300,709737.100,709447.100,709449.900,709842.200,709648.900,0.000
243329.000,413126.200,709270.100,709727.000,709436.900,709440.200,709832.300,709638.900,0.000
243328.500,412935.600,709271.300,709728.200,709438.300,709441.200,709833.400,709640.100,0.000
243413.000,413058.600,709280.300,709736.900,709447.400,709450.300,709842.400,709648.900,0.000
243480.600,413295.400,709286.900,709743.900,709454.400,709457.400,709849.700,709655.800,0.000
243445.700,413289.500,709286.100,709742.900,709453.400,709456.200,709849.000,709654.800,0.000
243349.600,412992.800,709277.100,709733.800,709444.300,709447.100,709839.800,709645.400,0.000
243329.800,412782.500,709273.800,709730.600,709441.200,709443.400,709836.100,709642.200,0.000
243409.200,412901.100,709280.600,709737.500,709447.800,709450.500,709843.000,709649.300,0.000
243455.900,413119.100,709281.500,709738.400,709448.600,709451.400,709843.900,709650.200,0.000
243399.200,413083.200,709275.900,709733.000,709442.900,709445.800,709838.300,709644.600,0.000
243316.400,412794.000,709272.900,709729.900,709440.000,709443.100,709835.400,709641.600,0.000
243320.900,412608.500,709273.600,709730.100,709440.500,709443.700,709835.900,709641.800,0.000
243406.200,412732.100,709282.100,709738.600,709449.100,709452.100,709844.100,709650.300,0.000
243462.900,412964.200,709287.100,709743.800,709453.600,709456.600,709849.300,709655.700,0.000
243420.300,412947.900,709283.400,709740.300,709450.100,709453.000,709845.700,709652.200,0.000
243328.300,412655.800,709274.900,709731.300,709441.400,709444.700,709836.800,709643.300,0.000
243309.500,412448.300,709274.200,709730.600,709440.800,709444.100,709836.100,709642.400,0.000
243373.200,412555.200,709276.600,709733.100,709443.800,709446.400,709838.500,709644.800,0.000
243432.500,412786.800,709280.500,709737.200,709447.900,709450.600,709842.800,709649.300,0.000
243397.900,412771.600,709280.200,709737.100,709447.900,709450.100,709842.600,709648.900,0.000
243318.300,412488.400,709274.500,709731.300,709441.800,709444.600,709837.000,709643.600,0.000
243319.100,412307.700,709278.300,709734.900,709445.200,709447.900,709840.400,709647.000,0.000
243400.600,412430.200,709288.000,709744.900,709455.400,709458.200,709850.400,709656.600,0.000
243453.900,412650.000,709290.400,709746.900,709457.800,709460.900,709853.100,709659.100,0.000
243408.900,412621.200,709281.500,709737.900,709448.700,709451.600,709843.900,709650.400,0.000
243323.800,412337.100,709273.600,709729.700,709440.500,709443.400,709835.500,709642.300,0.000
243314.000,412140.200,709274.600,709731.100,709442.300,709444.900,709836.900,709643.100,0.000
243389.000,412252.700,709281.800,709738.200,709449.300,709451.800,709844.100,709650.500,0.000
243430.000,412455.300,709281.900,709738.400,709449.100,709452.000,709844.100,709650.800,0.000
243384.800,412433.300,709276.500,709733.100,709443.900,709446.900,709838.900,709645.100,0.000
243307.200,412151.700,709270.400,709726.800,709437.300,709440.000,709832.700,709638.900,0.000
243299.600,411951.500,709272.600,709729.000,709439.700,709442.300,709835.000,709640.900,0.000
243388.800,412073.000,709282.500,709738.900,709449.900,709452.400,709844.900,709651.200,0.000
243457.200,412306.600,709290.900,709747.100,709457.800,709460.800,709852.800,709659.600,0.000
243406.100,412283.100,709285.500,709741.800,709452.300,709455.500,709847.400,709654.300,0.000
243315.800,411999.600,709274.100,709729.900,709441.100,709444.300,709835.900,709642.400,0.000
243313.900,411812.300,709276.300,709732.200,709443.400,709446.600,709838.500,709644.700,0.000
243386.200,411925.600,709284.900,709740.900,709452.300,709455.400,709847.100,709653.500,0.000
243441.000,412152.300,709290.400,709746.900,709458.500,709461.100,709852.600,709659.600,0.000
243397.500,412133.500,709284.000,709740.600,709451.800,709454.900,709846.800,709653.100,0.000
243311.000,411847.300,709274.100,709730.400,709441.600,709444.800,709836.800,709642.800,0.000
243303.300,411640.800,709273.400,709729.700,709441.000,709444.100,709835.900,709642.500,0.000
243376.400,411741.900,709281.900,709738.600,709450.100,709452.400,709844.900,709651.200,0.000
243429.500,411968.800,709285.900,709742.600,709454.100,709456.600,709849.300,709655.300,0.000
243397.400,411959.600,709281.600,709737.800,709449.400,709452.000,709844.400,709650.900,0.000
243315.600,411686.600,709275.100,709731.800,709443.400,709446.100,709838.100,709644.900,0.000
243299.000,411480.300,709275.600,709732.300,709443.900,709446.900,709838.800,709645.200,0.000
243371.300,411580.800,709281.600,709737.800,709449.600,709452.600,709844.400,709650.700,0.000
243428.300,411810.400,709288.000,709744.600,709455.800,709458.600,709851.100,709657.200,0.000
243383.300,411793.400,709283.200,709739.700,709451.200,709454.100,709846.400,709652.200,0.000
243299.500,411514.100,709275.900,709732.600,709444.300,709446.900,709839.400,709645.500,0.000
243282.800,411305.100,709274.300,709730.300,709442.000,709444.500,709837.300,709642.800,0.000
243356.200,411407.900,709281.900,709737.400,709449.100,709451.800,709843.900,709649.900,0.000
243423.500,411647.800,709288.600,709744.300,709456.400,709458.800,709850.900,709657.400,0.000
243389.800,411645.300,709286.300,709742.400,709454.400,709456.400,709848.600,709655.400,0.000
243300.500,411366.700,709276.600,709732.900,709444.500,709447.100,709839.300,709645.800,0.000
243280.300,411162.600,709273.300,709729.500,709441.400,709444.100,709836.400,709642.100,0.000
243352.700,411265.600,709281.100,709737.100,709448.900,709451.400,709844.100,709649.900,0.000
243418.000,411489.500,709287.100,709742.900,709455.100,709457.600,709849.900,709656.100,0.000
243365.600,411469.100,709280.600,709736.700,709448.700,709451.600,709843.700,709649.900,0.000
243268.900,411186.200,709270.100,709725.900,709437.900,709441.000,709833.100,709639.400,0.000
243266.200,410995.300,709273.400,709729.000,709441.100,709444.300,709836.200,709642.400,0.000
243349.300,411097.300,709282.100,709738.000,709449.900,709453.100,709845.100,709651.500,0.000
243414.800,411330.900,709286.700,709742.800,709454.800,709457.600,709849.900,709655.800,0.000
243372.800,411323.300,709283.200,709739.400,709451.400,709453.800,709846.600,709652.300,0.000
243294.500,411056.600,709277.300,709733.400,709445.600,709448.200,709840.800,709646.800,0.000
243276.100,410849.100,709274.500,709730.800,709442.800,709445.200,709837.800,709644.100,0.000
243337.500,410942.300,709278.800,709734.900,709446.900,709449.300,709841.800,709647.700,0.000
243385.000,411159.700,709281.100,709737.100,709449.400,709451.800,709843.900,709650.100,0.000
243352.100,411162.200,709277.800,709733.600,709446.000,709448.300,709840.800,709646.800,0.000
243295.400,410923.800,709278.900,709734.600,709446.600,709449.400,709841.900,709647.700,0.000
243292.000,410733.700,709281.100,709736.700,709449.400,709451.800,709844.300,709650.100,0.000
243348.700,410820.900,709284.800,709740.300,709453.700,709455.900,709848.300,709654.400,0.000
243406.100,411042.600,709288.900,709744.800,709457.600,709459.800,709852.400,709658.400,0.000
243368.400,411045.800,709282.800,709738.900,709451.800,709454.100,709846.600,709652.600,0.000
243277.100,410773.500,709270.500,709726.800,709439.800,709442.400,709834.800,709640.400,0.000
243259.000,410571.800,709268.700,709724.900,709437.500,709440.100,709832.600,709638.100,0.000
243344.600,410692.600,709280.500,709736.400,709449.100,709451.400,709843.900,709649.700,0.000
243399.200,410916.800,709284.800,709740.400,709453.300,709455.900,709848.300,709654.100,0.000
243349.100,410907.900,709279.700,709735.300,709448.000,709450.600,709843.300,709648.800,0.000
243266.000,410638.900,709272.600,709727.800,709441.000,709443.600,709835.600,709641.600,0.000
243264.800,410446.100,709272.900,709728.400,709441.800,709444.100,709836.400,709642.400,0.000
243335.000,410538.600,709280.200,709735.700,709449.100,709451.200,709843.900,709649.700,0.000
243378.700,410755.000,709281.100,709736.900,709450.100,709452.400,709844.900,709650.900,0.000
243336.700,410756.600,709278.000,709733.800,709447.300,709449.400,709841.800,709647.700,0.000
243265.800,410496.000,709273.800,709729.500,709443.100,709445.200,709837.400,709643.400,0.000
243265.100,410297.500,709275.900,709730.800,709444.800,709447.200,709839.100,709645.300,0.000
243335.500,410395.100,709281.500,709737.100,709451.000,709453.700,709845.600,709651.600,0.000
243405.500,410638.000,709290.700,709746.500,709459.900,709462.400,709854.400,709660.700,0.000
243359.100,410618.000,709280.300,709736.400,709449.800,709451.800,709844.600,709650.100,0.000
243283.500,410358.500,709274.400,709730.100,709443.900,709445.600,709838.400,709644.100,0.000
243264.800,410156.800,709274.800,709730.300,709444.300,709446.300,709839.300,709644.900,0.000
243330.000,410248.100,709281.600,709736.900,709451.000,709453.400,709845.900,709651.600,0.000
243405.500,410493.100,709293.100,709748.500,709462.600,709464.900,709857.300,709663.000,0.000
243344.700,410471.400,709283.100,709739.000,709453.600,709455.700,709848.000,709653.500,0.000
243240.500,410175.700,709268.800,709724.300,709438.800,709441.200,709833.600,709639.300,0.000
243235.500,409975.100,709269.700,709725.100,709439.400,709441.900,709834.100,709639.800,0.000
243317.400,410080.200,709277.200,709732.600,709447.100,709449.600,709841.800,709647.600,0.000
243379.200,410304.100,709282.100,709737.800,709451.600,709454.600,709846.800,709652.800,0.000
243342.000,410298.400,709275.800,709731.600,709445.800,709448.300,709841.000,709646.300,0.000
243268.400,410053.000,709274.200,709729.700,709444.100,709446.300,709838.900,709644.500,0.000
243255.100,409845.400,709272.100,709727.400,709442.300,709444.400,709836.800,709642.300,0.000
243306.400,409934.500,709276.300,709731.100,709446.400,709448.300,709840.800,709646.100,0.000
243354.700,410164.500,709278.000,709732.800,709447.800,709450.100,709842.600,709648.300,0.000
243330.300,410180.800,709274.100,709729.300,709443.900,709446.300,709838.700,709644.400,0.000
243275.800,409958.900,709275.700,709731.100,709445.600,709447.700,709840.400,709645.900,0.000
243241.800,409749.900,709271.300,709726.200,709441.300,709443.600,709836.100,709641.600,0.000
243318.200,409861.500,709278.000,709733.400,709448.400,709450.900,709843.500,709648.600,0.000
243399.300,410120.900,709287.300,709742.800,709457.800,709460.300,709852.800,709658.000,0.000
243367.500,410141.800,709283.300,709738.900,709454.000,709456.400,709848.800,709654.300,0.000
243284.400,409891.900,709276.700,709732.600,709447.600,709450.100,709842.400,709648.000,0.000
243269.900,409710.000,709277.500,709733.000,709448.300,709450.600,709842.600,709648.500,0.000
243332.500,409820.500,709283.600,709739.300,709454.800,709457.100,709848.900,709654.900,0.000
243384.000,410058.700,709287.800,709743.200,709458.500,709460.900,709852.900,709658.600,0.000
243361.200,410101.500,709287.900,709743.200,709458.800,709461.100,709853.400,709659.000,0.000
243283.300,409857.200,709282.500,709737.700,709453.500,709455.700,709848.000,709653.800,0.000
243263.300,409660.500,709281.800,709736.700,709452.800,709455.100,709847.400,709652.900,0.000
243333.100,409764.100,709285.700,709740.600,709457.200,709459.500,709851.400,709657.200,0.000
243398.200,410009.300,709288.600,709743.900,709460.100,709462.600,709854.400,709659.900,0.000
243367.000,410038.800,709283.600,709738.800,709454.900,709457.400,709849.300,709655.100,0.000
243295.400,409796.900,709276.400,709731.800,709447.900,709450.500,709842.400,709647.900,0.000
243285.600,409617.100,709276.100,709731.300,709447.800,709450.100,709842.100,709647.400,0.000
243356.800,409733.300,709281.600,709736.700,709453.300,709455.300,709847.600,709653.000,0.000
243414.800,409984.900,709286.500,709741.600,709458.100,709460.400,709852.600,709657.900,0.000
243386.300,410014.700,709284.000,709739.200,709455.500,709457.900,709850.600,709655.700,0.000
243298.700,409759.400,709273.900,709728.700,709444.900,709447.400,709839.900,709645.200,0.000
243280.800,409565.400,709270.100,709724.900,709441.600,709443.900,709836.200,709641.400,0.000
243361.300,409681.000,709279.600,709734.400,709451.300,709453.300,709845.600,709651.200,0.000
243426.700,409932.000,709285.100,709740.300,709457.200,709459.300,709851.900,709657.400,0.000
243405.400,409999.600,709292.300,709747.700,709464.700,709466.700,709859.500,709664.800,0.000
243311.200,409747.900,709281.300,709736.400,709453.600,709455.900,709848.600,709653.500,0.000
243288.600,409526.700,709270.900,709726.100,709443.600,709446.000,709838.400,709643.700,0.000
243362.000,409626.000,709275.900,709731.100,709448.500,709451.000,709843.100,709648.300,0.000
243421.100,409866.000,709280.000,709735.300,709452.900,709455.300,709847.400,709652.600,0.000
243380.400,409885.100,709278.100,709733.600,709451.000,709453.300,709846.100,709651.100,0.000
243294.600,409636.800,709271.800,709726.800,709444.500,709446.600,709839.400,709644.500,0.000
243282.900,409452.100,709270.900,709726.300,709443.400,709445.800,709838.300,709643.700,0.000
243352.800,409548.400,709276.400,709731.700,709449.400,709451.600,709844.300,709649.400,0.000
243410.900,409780.700,709280.000,709735.300,709453.400,709455.100,709847.700,709652.800,0.000
243385.300,409813.100,709278.800,709734.000,709452.000,709454.100,709846.400,709651.500,0.000
243310.700,409569.300,709271.100,709726.300,709444.800,709446.600,709839.100,709644.100,0.000
243276.900,409366.700,709268.700,709723.700,709441.800,709444.300,709836.800,709641.600,0.000
243341.900,409474.100,709278.400,709733.400,709451.100,709453.600,709846.200,709650.800,0.000
243402.800,409713.400,709284.400,709739.700,709457.800,709459.800,709852.600,709657.300,0.000
243364.800,409730.000,709281.400,709736.300,709454.600,709456.500,709849.300,709654.400,0.000
243275.000,409480.300,709275.300,709730.400,709448.500,709450.100,709842.900,709648.300,0.000
243258.400,409285.200,709274.100,709729.400,709447.700,709449.300,709842.100,709647.300,0.000
243321.800,409386.800,709281.900,709737.100,709455.700,709457.800,709849.900,709655.300,0.000
243381.500,409618.700,709286.300,709741.900,709460.400,709462.600,709854.700,709659.900,0.000
243348.700,409640.100,709280.900,709736.900,709455.100,709457.300,709849.700,709655.100,0.000
243262.500,409385.300,709273.400,709729.700,709448.000,709450.600,709842.700,709648.200,0.000
243229.900,409162.900,709267.800,709724.500,709443.800,709445.600,709837.600,709643.400,0.000
243300.100,409251.100,709273.100,709730.400,709449.700,709452.000,709843.900,709649.100,0.000
243368.800,409491.100,709280.200,709737.900,709457.400,709459.500,709851.800,709656.600,0.000
243325.000,409493.900,709275.600,709733.300,709453.200,709455.500,709847.900,709652.900,0.000
243225.500,409210.000,709265.700,709723.900,709444.300,709446.600,709839.100,709644.100,0.000
243198.300,408986.200,709260.600,709719.700,709440.800,709443.100,709835.100,709640.400,0.000
243266.800,409063.800,709264.300,709724.600,709445.500,709447.600,709839.700,709645.400,0.000
243333.100,409286.200,709269.400,709729.700,709450.900,709453.000,709845.300,709650.400,0.000
243312.400,409308.700,709269.000,709729.900,709451.400,709453.700,709845.700,709650.700,0.000
243224.100,409038.400,709257.600,709719.600,709441.600,709444.100,709835.900,709641.300,0.000
243220.000,408827.500,709259.000,709721.400,709444.300,709446.400,709838.600,709643.900,0.000
243308.400,408922.300,709269.600,709732.900,709456.400,709458.400,709850.600,709655.800,0.000
243352.200,409123.600,709267.600,709730.400,709454.500,709456.900,709848.600,709654.100,0.000
243311.500,409127.700,709263.300,709726.600,709451.400,709453.300,709845.200,709651.200,0.000
243231.900,408877.700,709256.100,709720.100,709445.800,709447.700,709840.100,709645.400,0.000
243221.300,408675.900,709257.600,709721.100,709448.500,709450.800,709843.000,709648.000,0.000
243265.100,408732.200,709257.200,709721.300,709449.400,709451.400,709843.900,709648.900,0.000
243316.900,408944.400,709259.900,709724.300,709452.700,709455.100,709847.200,709652.600,0.000
243294.800,408961.000,709257.800,709721.800,709451.600,709454.100,709846.400,709651.300,0.000
243212.700,408695.900,709248.000,709712.600,709444.100,709446.400,709838.500,709643.400,0.000
243203.700,408483.200,709248.400,709712.900,709446.100,709448.300,709840.300,709645.300,0.000
243248.100,408527.200,709245.400,709710.000,709444.400,709446.900,709838.600,709643.900,0.000
243298.800,408731.300,709243.500,709708.100,709443.100,709445.800,709837.600,709642.500,0.000
243276.800,408759.200,709242.900,709707.800,709444.100,709446.400,709838.500,709643.100,0.000
243186.300,408498.500,709232.900,709697.700,709435.800,709438.100,709830.100,709634.900,0.000
243178.600,408301.500,709232.600,709697.400,709437.100,709439.600,709831.400,709636.300,0.000
243251.600,408377.900,709240.400,709705.100,709446.000,709448.500,709840.200,709645.200,0.000
243331.000,408617.300,709252.400,709717.800,709459.300,709461.400,709852.900,709658.300,0.000
243298.100,408628.700,709246.300,709711.800,709454.600,709456.800,709848.600,709653.200,0.000
243205.000,408361.800,709232.400,709698.100,709442.400,709444.700,709836.400,709641.000,0.000
243190.600,408144.800,709229.600,709695.600,709441.600,709444.100,709835.800,709640.500,0.000
243262.300,408220.300,709232.300,709698.300,709445.400,709448.100,709839.700,709644.400,0.000
243324.400,408441.200,709233.700,709700.000,709447.400,709449.900,709841.600,709646.800,0.000
243292.100,408465.800,709229.600,709695.900,709444.500,709447.000,709838.300,709643.600,0.000
243210.800,408208.500,709221.100,709687.400,709438.300,709440.600,709832.100,709637.300,0.000
243197.000,408003.300,709222.100,709688.400,709441.300,709443.500,709835.000,709640.000,0.000
243275.900,408108.100,709230.900,709697.900,709451.800,709453.800,709845.400,709650.600,0.000
243334.100,408333.300,709231.400,709698.900,709453.300,709455.400,709847.300,709652.000,0.000
243292.400,408346.200,709223.500,709690.900,709446.600,709449.100,709840.800,709645.200,0.000
243200.700,408082.400,709209.100,709676.900,709434.400,709437.300,709828.700,709633.100,0.000
243204.300,407919.100,709219.900,709688.300,709447.400,709450.300,709841.400,709646.300,0.000
243260.900,407990.000,709219.400,709688.100,709448.100,709450.800,709842.000,709646.800,0.000
243316.300,408202.700,709214.900,709683.800,709444.700,709447.400,709838.800,709643.100,0.000
243271.500,408201.300,709202.200,709670.800,709433.300,709435.800,709827.300,709631.600,0.000
243191.400,407954.800,709194.000,709662.800,709427.300,709429.800,709821.000,709625.400,0.000
243182.800,407764.300,709197.300,709666.300,709432.300,709435.100,709826.300,709630.900,0.000
243254.800,407867.800,709205.300,709674.800,709442.000,709444.600,709835.500,709640.200,0.000
243314.800,408104.300,709208.800,709678.800,709446.900,709448.500,709839.900,709644.900,0.000
243281.400,408146.300,709206.100,709675.900,709445.500,709447.400,709838.900,709643.600,0.000
243199.000,407901.300,709197.400,709667.100,709439.100,709441.200,709832.500,709636.800,0.000
243178.000,407683.400,709190.900,709661.100,709434.900,709437.100,709828.500,709632.800,0.000
243253.300,407780.200,709197.300,709667.800,709442.800,709444.900,709836.100,709640.800,0.000
243302.800,407992.400,709193.300,709664.200,709439.800,709442.300,709832.900,709637.900,0.000
243279.300,408024.200,709188.500,709659.300,709436.400,709438.500,709829.800,709634.700,0.000
243198.100,407790.900,709183.300,709654.000,709433.300,709435.200,709826.300,709631.100,0.000
243162.600,407567.100,709179.100,709649.700,709431.400,709433.600,709824.500,709629.400,0.000
243232.900,407657.000,709186.400,709657.800,709440.200,709442.600,709833.700,709638.300,0.000
243304.600,407910.100,709193.000,709664.900,709447.900,709450.300,709841.200,709645.700,0.000
243272.300,407932.600,709183.100,709655.500,709439.800,709442.000,709833.400,709637.700,0.000
243190.500,407691.900,709173.800,709646.300,709433.100,709435.200,709826.700,709630.900,0.000
243166.300,407486.600,709172.200,709644.500,709433.600,709435.800,709826.900,709631.400,0.000
243221.100,407558.700,709174.300,709647.300,709437.200,709439.700,709830.300,709635.000,0.000
243285.200,407802.000,709177.500,709650.900,709441.900,709443.900,709835.000,709639.500,0.000
243258.400,407834.100,709169.800,709643.300,709436.000,709438.400,709829.300,709633.400,0.000
243196.800,407614.800,709167.900,709641.600,709436.400,709439.100,709829.800,709633.900,0.000
243182.600,407415.100,709167.900,709641.800,709439.200,709441.400,709832.300,709636.400,0.000
243246.600,407497.900,709173.900,709647.900,709446.400,709448.900,709839.800,709643.900,0.000
243291.000,407720.700,709174.200,709648.600,709447.900,709450.100,709841.200,709645.500,0.000
243252.700,407757.300,709170.400,709645.200,709445.900,709448.100,709839.400,709643.600,0.000
243172.700,407503.300,709161.700,709636.100,709439.600,709441.600,709832.700,709636.700,0.000
243163.300,407295.200,709159.400,709634.100,709440.200,709442.500,709832.800,709637.200,0.000
243224.100,407369.200,709162.700,709637.900,709445.100,709447.800,709838.100,709642.300,0.000
243286.500,407603.100,709165.300,709641.000,709449.100,709451.300,709841.600,709646.200,0.000
243244.500,407619.800,709156.800,709633.300,709442.900,709444.700,709835.400,709639.600,0.000
243153.400,407364.200,709145.300,709621.700,709433.900,709435.800,709826.400,709630.600,0.000
243116.100,407129.300,709135.100,709611.500,709425.900,709428.100,709818.700,709622.600,0.000
243201.700,407231.700,709144.900,709622.100,709437.300,709439.800,709830.000,709634.500,0.000
243265.600,407467.600,709148.300,709626.100,709441.800,709444.600,709834.400,709639.300,0.000
243246.300,407511.800,709149.100,709626.600,709444.100,709446.800,709836.800,709641.200,0.000
243184.600,407306.400,709149.000,709627.100,709447.000,709449.600,709839.700,709643.800,0.000
243161.200,407088.300,709140.900,709619.900,709442.000,709444.300,709834.800,709638.900,0.000
243232.000,407162.600,709144.100,709623.700,709446.900,709449.300,709839.900,709644.100,0.000
243285.400,407391.700,709145.700,709625.600,709449.800,709452.300,709842.600,709646.800,0.000
243242.000,407417.000,709136.700,709617.500,709442.900,709445.500,709836.100,709640.200,0.000
243169.400,407183.300,709129.600,709610.900,709439.400,709441.900,709832.300,709636.300,0.000
243135.900,406956.700,709122.700,709604.400,709435.900,709437.900,709827.900,709632.300,0.000
243211.000,407037.200,709127.800,709610.300,709442.900,709444.600,709834.800,709639.300,0.000
243279.900,407284.200,709133.400,709616.900,709449.900,709451.600,709842.000,709646.300,0.000
243240.700,407312.400,709125.800,709609.900,709444.300,709446.000,709836.300,709640.500,0.000
243150.900,407062.600,709113.500,709598.000,709434.800,709437.000,709826.900,709631.400,0.000
243126.000,406845.200,709107.200,709592.200,709431.700,709433.800,709823.900,709627.900,0.000
243189.700,406920.300,709108.800,709595.100,709436.000,709437.800,709827.900,709631.800,0.000
243268.400,407169.000,709116.200,709603.200,709444.900,709446.400,709837.000,709640.800,0.000
243261.600,407231.600,709116.200,709604.300,709447.400,709449.300,709839.400,709643.300,0.000
243179.800,406982.900,709106.300,709594.900,709440.900,709442.700,709833.100,709636.900,0.000
243155.800,406768.800,709100.100,709590.600,709438.400,709440.300,709831.000,709634.700,0.000
243217.100,406843.700,709100.000,709591.900,709441.000,709443.100,709833.500,709637.600,0.000
243285.300,407091.300,709104.800,709598.300,709448.000,709450.300,709840.300,709644.300,0.000
243247.400,407124.200,709096.900,709592.300,709443.600,709445.800,709835.500,709639.700,0.000
243165.400,406878.700,709086.400,709584.100,709437.800,709440.200,709829.800,709634.100,0.000
243133.600,406644.700,709074.900,709575.900,709432.300,709434.600,709824.500,709628.500,0.000
243208.400,406732.100,709080.400,709585.100,709443.100,709444.900,709834.900,709638.800,0.000
243268.900,406957.700,709081.400,709589.700,709448.400,709450.500,709840.400,709643.700,0.000
243244.800,406992.300,709067.400,709583.600,709443.600,709445.800,709835.600,709639.400,0.000
243166.600,406751.100,709002.100,709572.900,709437.000,709439.100,709828.800,709632.500,0.000
243130.800,406519.600,708675.100,709556.900,709432.000,709434.200,709823.800,709627.500,0.000
243187.500,406587.500,708240.900,709553.100,709435.300,709437.600,709826.400,709630.800,0.000
243270.100,406842.700,707890.100,709560.400,709444.300,709446.400,709835.200,709639.400,0.000
243247.900,406893.700,707383.100,709559.100,709445.200,709447.200,709836.400,709640.100,0.000
243127.900,406604.500,706586.800,709534.100,709424.100,709426.600,709815.400,709619.100,0.000
243144.300,406419.400,705866.200,709539.000,709432.700,709435.100,709823.500,709627.800,0.000
243221.500,406505.700,705331.400,709545.100,709440.400,709443.000,709831.200,709635.200,0.000
243295.000,406763.900,704918.400,709551.300,709447.400,709449.700,709838.100,709642.400,0.000
243261.900,406797.000,704312.300,709542.100,709440.900,709443.300,709831.700,709635.800,0.000
243177.000,406563.800,703517.500,709532.600,709435.600,709438.300,709826.700,709630.800,0.000
243167.400,406357.800,702763.800,709529.200,709436.300,709438.900,709826.900,709631.100,0.000
243239.100,406440.000,702233.900,709531.600,709441.000,709443.100,709831.200,709635.300,0.000
243301.100,406681.200,701821.400,709533.600,709444.300,709446.000,709834.500,709638.700,0.000
243265.300,406720.500,701257.100,709525.600,709438.900,709440.600,709829.400,709633.300,0.000
243186.500,406486.000,700509.300,709515.700,709434.200,709436.200,709824.600,709628.500,0.000
243165.400,406281.300,699798.400,709508.800,709432.800,709434.700,709822.900,709627.000,0.000
243236.300,406378.400,699305.600,709511.300,709437.500,709440.000,709828.300,709631.800,0.000
243309.800,406650.200,698934.200,709516.000,709443.600,709446.300,709833.700,709637.400,0.000
243280.300,406707.400,698405.100,709506.200,709438.700,709440.900,709828.300,709632.200,0.000
243197.400,406481.300,697683.100,709488.100,709432.900,709435.600,709823.100,709627.100,0.000
243166.800,406278.500,696990.100,709457.300,709432.100,709434.600,709822.300,709626.100,0.000
243244.300,406389.300,696522.700,709429.900,709443.900,709446.200,709833.400,709637.400,0.000
243312.900,406651.900,696151.800,709374.600,709447.600,709450.100,709837.300,709641.600,0.000
243286.000,406725.800,695642.900,709048.300,709444.800,709447.000,709833.800,709638.100,0.000
243200.200,406502.600,694929.600,708333.600,709436.300,709438.400,709824.900,709629.100,0.000
243168.800,406288.400,694235.300,707604.900,709431.300,709433.900,709820.200,709624.200,0.000
243232.000,406385.800,693766.000,707281.500,709438.900,709441.600,709827.900,709631.700,0.000
243303.600,406651.700,693405.100,707163.100,709444.700,709447.300,709834.100,709637.500,0.000
243280.500,406721.600,692900.000,706729.500,709444.300,709446.800,709833.400,709637.000,0.000
243184.800,406477.600,692173.000,705847.100,709431.400,709433.600,709820.200,709623.800,0.000
243167.500,406292.700,691514.600,705078.500,709437.400,709439.700,709826.500,709629.800,0.000
243238.800,406397.500,691054.800,704752.600,709446.200,709448.900,709835.500,709638.700,0.000
243294.200,406637.600,690673.500,704610.500,709444.700,709447.600,709833.900,709637.300,0.000
243268.300,406712.100,690177.400,704190.800,709442.900,709445.600,709831.800,709635.200,0.000
243181.000,406491.400,689482.000,703382.300,709439.300,709441.600,709828.100,709631.600,0.000
243156.000,406295.500,688811.900,702657.900,709439.100,709441.600,709827.900,709631.600,0.000
243221.800,406385.800,688343.300,702353.600,709442.700,709445.600,709831.900,709635.600,0.000
243293.500,406648.600,687988.200,702253.300,709448.700,709451.100,709837.500,709641.400,0.000
243276.000,406726.600,687503.500,701880.400,709448.300,709450.300,709837.100,709640.600,0.000
243195.400,406508.600,686817.400,701138.300,709440.800,709443.100,709829.600,709633.300,0.000
243176.800,406310.600,686155.300,700465.400,709442.200,709444.900,709831.200,709634.900,0.000
243244.200,406411.800,685705.900,700197.300,709449.400,709451.900,709838.100,709641.900,0.000
243299.700,406666.000,685357.400,700113.400,709452.700,709455.100,709841.400,709645.100,0.000
243271.300,406728.800,684874.900,699762.600,709447.900,709450.600,709836.600,709640.300,0.000
243189.300,406505.400,684215.100,699053.000,709438.900,709441.800,709827.500,709631.100,0.000
243163.200,406304.000,683819.000,698412.200,709436.900,709439.400,709824.800,709628.300,0.000
243225.100,406392.400,683646.100,698161.000,709443.800,709446.100,709832.300,709635.200,0.000
243291.100,406647.900,683494.600,698092.500,709447.900,709450.400,709836.600,709639.500,0.000
243273.900,406728.800,683392.800,697768.500,709449.900,709452.100,709838.300,709641.200,0.000
243207.900,406522.700,683231.700,697093.600,709446.300,709448.700,709834.900,709638.100,0.000
243168.000,406293.600,682942.500,696451.100,709439.300,709441.900,709827.800,709631.100,0.000
243224.100,406363.900,682848.500,696195.400,709441.800,709444.100,709830.100,709633.400,0.000
243296.200,406618.800,682872.800,696141.700,709446.200,709448.900,709834.800,709638.300,0.000
243267.200,406682.700,682751.300,695818.400,709441.200,709443.800,709829.800,709633.100,0.000
243185.400,406469.900,682441.500,695155.200,709435.200,709437.800,709823.900,709627.100,0.000
243152.400,406257.800,682143.000,694540.200,709435.800,709438.500,709824.800,709628.100,0.000
243221.200,406341.200,682053.700,694310.100,709443.300,709446.100,709832.500,709635.600,0.000
243272.400,406571.800,682050.000,694244.300,709444.700,709447.200,709833.600,709636.700,0.000
243247.400,406624.800,681917.900,693926.600,709440.000,709442.300,709828.700,709632.200,0.000
243175.700,406403.300,681605.700,693274.100,709436.200,709438.400,709824.800,709627.800,0.000
243141.800,406158.600,681280.700,692642.100,709431.500,709433.900,709820.200,709623.100,0.000
243221.700,406233.600,681182.800,692409.500,709438.500,709440.800,709827.300,709630.200,0.000
243292.600,406481.500,681197.900,692369.100,709447.700,709450.100,709836.800,709639.900,0.000
243253.000,406518.400,681048.900,692041.100,709440.500,709443.500,709829.700,709632.600,0.000
243166.100,406282.700,680717.400,691377.900,709433.300,709436.200,709822.300,709625.100,0.000
243145.200,406069.400,680417.000,690776.100,709434.100,709436.600,709822.900,709626.000,0.000
243209.200,406129.400,680306.900,690536.400,709440.900,709443.800,709830.200,709633.100,0.000
243273.800,406361.300,680305.800,690483.700,709446.300,709449.700,709835.800,709638.900,0.000
243244.800,406415.600,680168.800,690173.300,709442.400,709445.800,709831.400,709635.000,0.000
243165.600,406191.800,679840.900,689523.800,709437.800,709440.900,709826.700,709629.800,0.000
243136.000,405969.300,679521.400,688909.900,709437.600,709440.600,709826.500,709629.400,0.000
243199.000,406032.000,679406.700,688672.100,709444.700,709446.900,709833.300,709636.300,0.000
243274.100,406274.100,679408.400,688631.600,709452.200,709454.500,709840.800,709643.900,0.000
243241.000,406310.700,679252.400,688312.500,709445.900,709448.300,709834.800,709637.800,0.000
243147.000,406064.700,678907.400,687647.300,709434.900,709437.500,709823.800,709626.800,0.000
243117.500,405836.300,678588.600,687034.300,709432.400,709434.700,709821.100,709624.100,0.000
243177.600,405895.400,678477.900,686801.100,709443.400,709445.800,709832.300,709635.200,0.000
243240.900,406127.800,678470.600,686751.900,709450.700,709453.200,709839.300,709642.000,0.000
243219.300,406176.500,678322.200,686442.100,709443.800,709445.800,709831.900,709634.900,0.000
243140.000,405947.800,677990.700,685793.600,709436.400,709438.900,709824.900,709628.100,0.000
243111.400,405734.600,677683.000,685194.400,709439.400,709442.200,709827.900,709631.400,0.000
243162.700,405779.600,677546.900,684934.900,709441.800,709444.100,709830.200,709633.100,0.000
243225.100,406001.200,677525.100,684871.700,709443.100,709445.500,709832.000,709634.800,0.000
243191.100,406053.400,677373.900,684558.100,709438.700,709441.100,709827.300,709630.200,0.000
243125.200,405842.900,677057.700,683923.300,709437.800,709440.500,709826.500,709629.600,0.000
243105.500,405625.100,676737.900,683311.100,709436.400,709439.300,709825.300,709627.800,0.000
243173.900,405687.000,676605.300,683053.800,709439.800,709442.500,709827.900,709630.600,0.000
243235.500,405927.600,676587.000,682992.400,709443.100,709446.000,709831.200,709634.100,0.000
243210.100,405982.300,676428.600,682641.400,709437.900,709440.600,709825.600,709628.900,0.000
243119.800,405746.800,676054.900,682056.800,709430.600,709433.800,709819.400,709622.300,0.000
243093.800,405530.900,675699.400,681695.900,709431.500,709434.700,709820.600,709623.200,0.000
243158.200,405595.200,675538.300,681705.000,709437.100,709440.100,709826.100,709629.100,0.000
243231.100,405837.000,675493.800,681908.200,709443.900,709446.600,709832.900,709635.800,0.000
243199.300,405883.400,675303.400,681845.200,709438.700,709441.400,709827.900,709630.800,0.000
243120.900,405657.300,674924.200,681432.600,709430.400,709433.100,709819.400,709621.900,0.000
243103.200,405448.800,674570.400,681065.100,709430.600,709432.800,709819.300,709621.900,0.000
243162.400,405510.300,674404.000,681052.800,709434.700,709436.700,709823.400,709626.300,0.000
243227.800,405752.500,674356.100,681239.600,709439.600,709441.600,709828.100,709630.800,0.000
243203.400,405810.000,674170.900,681166.900,709434.300,709436.700,709822.900,709626.000,0.000
243128.600,405599.300,673805.400,680752.700,709429.600,709431.800,709817.800,709621.200,0.000
243101.100,405380.900,673443.700,680363.400,709427.900,709430.800,709816.400,709619.800,0.000
243169.300,405454.900,673284.100,680344.600,709436.400,709439.200,709825.100,709627.800,0.000
243241.000,405707.900,673245.100,680528.600,709442.100,709444.500,709831.100,709633.800,0.000
243203.200,405765.200,673057.200,680445.800,709436.200,709438.700,709825.200,709627.800,0.000
243125.700,405561.600,672693.300,680030.300,709433.900,709436.200,709822.400,709625.400,0.000
243102.400,405352.000,672333.600,679639.300,709433.100,709435.100,709821.100,709624.400,0.000
243173.600,405429.500,672178.800,679624.100,709438.700,709441.000,709827.300,709630.300,0.000
243227.800,405670.600,672127.300,679798.800,709440.600,709442.800,709829.200,709632.400,0.000
243207.100,405749.500,671960.500,679736.600,709438.600,709441.200,709827.300,709630.600,0.000
243115.300,405520.200,671576.600,679296.600,709427.100,709429.900,709815.900,709619.000,0.000
243089.800,405308.600,671219.300,678905.500,709429.000,709431.800,709817.900,709620.800,0.000
243149.200,405364.600,671048.800,678875.100,709434.800,709437.700,709824.000,709626.400,0.000
243215.900,405610.100,670996.600,679047.100,709436.600,709439.100,709825.600,709627.900,0.000
243201.500,405696.600,670833.600,678988.800,709435.600,709437.800,709824.300,709626.700,0.000
243124.500,405485.100,670470.000,678571.400,709432.000,709434.100,709820.700,709622.700,0.000
243092.300,405260.700,670105.900,678174.700,709433.500,709436.300,709822.500,709624.600,0.000
243146.400,405304.100,669923.000,678132.600,709433.400,709436.600,709822.600,709624.600,0.000
243225.100,405547.700,669880.300,678315.400,709440.800,709443.800,709829.800,709632.000,0.000
243185.500,405590.800,669691.300,678229.300,709434.700,709437.200,709823.300,709625.600,0.000
243090.400,405349.300,669302.800,677782.600,709424.800,709427.100,709813.300,709615.500,0.000
243070.500,405127.100,668943.100,677388.100,709426.400,709429.100,709815.400,709617.300,0.000
243138.900,405194.500,668790.000,677381.200,709434.500,709437.300,709823.800,709625.400,0.000
243227.400,405464.300,668769.900,677606.900,709443.600,709446.100,709832.500,709634.100,0.000
243219.300,405557.600,668620.600,677588.100,709442.400,709445.200,709831.400,709633.600,0.000
243139.600,405345.600,668261.300,677196.100,709436.900,709439.700,709825.800,709628.100,0.000
243108.700,405122.800,667903.800,676825.900,709432.900,709435.300,709821.500,709623.600,0.000
243192.200,405222.500,667783.500,676874.700,709444.700,709446.900,709833.100,709635.100,0.000
243258.800,405483.300,667755.300,677109.400,709447.700,709450.100,709836.200,709638.100,0.000
243230.100,405560.900,667592.000,677086.900,709441.300,709443.900,709830.000,709632.100,0.000
243138.800,405342.700,667229.400,676695.900,709434.200,709436.900,709822.900,709625.100,0.000
243114.700,405120.000,666875.100,676329.700,709432.500,709435.200,709821.300,709623.300,0.000
243184.800,405206.800,666739.800,676361.700,709438.100,709441.600,709827.500,709629.300,0.000
243238.000,405458.200,666707.900,676593.400,709440.800,709443.900,709830.200,709632.000,0.000
243221.500,405548.700,666561.100,676584.900,709440.300,709443.300,709829.200,709631.000,0.000
243145.400,405350.100,666219.600,676209.800,709435.200,709437.900,709823.900,709625.800,0.000
243116.600,405138.700,665876.000,675850.200,709434.600,709437.200,709823.400,709625.000,0.000
243182.900,405210.300,665731.100,675870.800,709439.100,709441.600,709827.700,709629.300,0.000
243265.000,405479.300,665718.500,676118.900,709446.100,709448.800,709835.100,709636.900,0.000
243258.300,405578.900,665583.100,676120.400,709448.100,709451.200,709837.200,709639.300,0.000
243156.900,405351.800,665214.500,675717.100,709437.900,709440.600,709826.700,709628.500,0.000
243117.800,405117.000,664850.800,675335.400,709434.100,709436.700,709822.900,709624.000,0.000
243161.200,405160.100,664682.200,675330.800,709434.900,709437.600,709824.000,709625.100,0.000
243228.900,405418.100,664660.300,675567.400,709440.600,709443.000,709829.200,709630.800,0.000
243228.000,405524.000,664528.100,675566.400,709441.200,709443.600,709829.600,709631.400,0.000
243160.600,405327.600,664186.100,675183.300,709438.300,709440.500,709826.500,709628.100,0.000
243122.300,405095.300,663823.700,674795.000,709434.400,709436.700,709822.900,709624.100,0.000
243179.300,405151.600,663665.000,674791.800,709438.700,709441.100,709826.900,709628.300,0.000
243250.700,405404.600,663638.100,675018.300,709441.800,709444.100,709830.000,709631.600,0.000
243233.800,405502.300,663494.400,675002.800,709439.200,709441.900,709828.100,709629.500,0.000
243134.200,405280.700,663131.400,674588.300,709428.100,709431.000,709817.100,709618.100,0.000
243089.600,405047.600,662766.700,674188.900,709423.500,709426.300,709812.300,709612.900,0.000
243158.500,405125.500,662622.700,674193.300,709430.000,709432.700,709819.000,709619.600,0.000
243235.400,405394.200,662606.400,674421.400,709436.400,709439.100,709825.200,709626.100,0.000
243207.500,405477.800,662453.300,674388.400,709431.900,709434.200,709820.400,709621.400,0.000
243127.000,405275.900,662107.600,673991.100,709426.400,709428.600,709815.200,709616.000,0.000
243105.900,405067.300,661768.100,673616.700,709431.300,709433.500,709819.800,709620.400,0.000
243168.600,405134.200,661618.600,673613.500,709437.500,709440.300,709826.100,709627.100,0.000
243235.700,405385.400,661593.900,673831.000,709441.400,709444.300,709830.300,709630.900,0.000
243222.300,405489.600,661457.400,673812.400,709441.600,709444.700,709830.600,709630.900,0.000
243140.800,405283.600,661101.700,673400.100,709435.400,709438.100,709823.900,709624.400,0.000
243111.400,405059.100,660744.100,673000.900,709432.000,709434.800,709820.300,709620.600,0.000
243169.000,405124.100,660592.100,672986.100,709436.700,709439.400,709825.400,709625.400,0.000
243230.400,405384.400,660565.400,673196.900,709440.600,709443.300,709829.200,709629.800,0.000
243207.600,405482.900,660420.900,673167.300,709437.600,709440.200,709826.100,709626.500,0.000
243127.000,405282.000,660072.400,672760.700,709432.100,709434.700,709820.400,709620.700,0.000
243088.100,405052.500,659707.200,672348.400,709426.900,709429.300,709814.900,709615.000,0.000
243149.600,405121.600,659557.200,672333.800,709431.100,709433.400,709819.300,709619.100,0.000
243226.900,405398.400,659547.800,672559.200,709440.300,709442.800,709828.800,709629.100,0.000
243211.800,405501.600,659408.900,672534.900,709440.800,709443.100,709829.100,709629.500,0.000
243126.100,405289.300,659050.500,672116.900,709433.500,709436.000,709821.800,709621.600,0.000
243088.700,405061.100,658688.900,671709.600,709427.900,709430.400,709816.000,709615.600,0.000
243153.500,405125.000,658538.400,671692.200,709434.400,709437.100,709822.300,709622.300,0.000
243220.600,405376.300,658514.100,671900.900,709441.600,709444.600,709829.800,709630.100,0.000
243201.800,405477.000,658375.900,671878.800,709438.900,709441.600,709827.100,709627.700,0.000
243117.900,405273.400,658026.600,671468.400,709430.200,709432.600,709818.800,709618.600,0.000
243088.300,405056.300,657679.000,671069.300,709430.800,709433.300,709819.300,709618.600,0.000
243148.600,405119.200,657526.100,671048.200,709436.100,709438.400,709823.800,709623.500,0.000
243222.700,405387.000,657506.400,671261.600,709440.200,709442.900,709828.300,709628.100,0.000
243204.100,405492.000,657364.500,671232.100,709437.200,709440.200,709826.000,709625.600,0.000
243117.400,405292.800,657016.500,670822.900,709430.300,709433.500,709819.000,709618.100,0.000
243080.700,405066.800,656661.300,670418.600,709426.300,709429.400,709814.400,709613.600,0.000
243135.700,405122.200,656500.800,670388.400,709430.800,709433.700,709818.700,709617.900,0.000
243212.500,405394.200,656490.700,670608.900,709437.900,709440.500,709825.800,709625.600,0.000
243206.400,405508.300,656366.700,670599.100,709436.900,709439.600,709824.900,709624.800,0.000
243113.000,405297.800,656013.800,670185.700,709427.700,709430.300,709815.500,709614.800,0.000
243068.600,405063.800,655649.900,669773.000,709423.900,709426.300,709811.800,709610.600,0.000
243133.900,405131.000,655504.400,669757.400,709431.400,709433.900,709819.600,709618.200,0.000
243212.800,405402.600,655496.300,669982.800,709440.200,709442.500,709828.300,709627.600,0.000
243202.400,405507.300,655362.800,669964.800,709438.100,709440.600,709826.300,709625.600,0.000
243118.100,405303.900,655015.100,669555.800,709428.700,709431.300,709816.400,709615.700,0.000
243082.500,405077.300,654660.600,669151.800,709429.100,709431.600,709816.900,709615.500,0.000
243144.000,405141.400,654513.100,669134.400,709433.300,709435.600,709821.500,709619.600,0.000
243218.900,405411.600,654505.500,669360.100,709439.600,709441.800,709827.800,709626.300,0.000
243201.000,405512.800,654372.900,669342.800,709437.800,709440.300,709825.800,709624.800,0.000
243114.700,405306.100,654028.600,668936.500,709429.900,709432.600,709817.900,709616.800,0.000
243057.700,405055.800,653662.300,668520.300,709425.800,709428.400,709813.600,709611.900,0.000
243114.800,405114.800,653513.800,668503.400,709433.100,709435.800,709821.100,709619.000,0.000
243202.100,405401.000,653523.300,668747.100,709443.100,709446.000,709831.400,709629.800,0.000
243184.900,405501.700,653389.400,668731.100,709439.300,709442.000,709827.300,709625.800,0.000
243085.600,405278.200,653027.800,668308.800,709428.400,709431.000,709816.600,709614.400,0.000
243059.500,405053.300,652683.700,667911.800,709428.900,709431.300,709817.100,709614.600,0.000
243139.100,405124.400,652554.500,667910.300,709437.300,709440.000,709825.400,709622.700,0.000
243200.000,405368.800,652531.100,668120.500,709439.100,709441.400,709826.700,709624.600,0.000
243176.800,405465.500,652392.000,668096.200,709434.600,709437.300,709822.400,709620.800,0.000
243082.000,405253.300,652044.300,667686.800,709426.000,709429.000,709813.800,709611.900,0.000
243054.100,405033.500,651704.900,667295.600,709427.800,709430.600,709815.400,709613.000,0.000
243129.100,405107.900,651576.400,667294.800,709439.300,709441.600,709826.700,709624.200,0.000
243197.600,405363.200,651567.800,667516.900,709444.900,709447.100,709832.500,709630.400,0.000
243170.400,405452.900,651428.100,667493.600,709440.800,709442.700,709828.800,709626.300,0.000
243075.000,405238.100,651077.200,667083.400,709431.100,709433.300,709818.800,709616.300,0.000
243032.100,405001.900,650722.200,666676.700,709427.500,709429.900,709814.900,709612.300,0.000
243093.600,405056.900,650576.500,666658.300,709433.100,709435.800,709820.600,709617.800,0.000
243176.100,405325.100,650571.600,666884.600,709440.600,709443.000,709828.100,709625.900,0.000
243159.400,405429.000,650443.300,666870.400,709438.100,709440.300,709825.800,709623.300,0.000
243069.300,405219.800,650098.400,666459.300,709428.800,709431.100,709816.300,709613.800,0.000
243035.800,404990.900,649752.100,666054.400,709429.300,709431.400,709816.400,709613.600,0.000
243105.700,405056.500,649616.600,666043.800,709437.800,709440.500,709825.600,709622.700,0.000
243182.800,405326.700,649614.100,666272.800,709444.100,709447.200,709832.300,709629.600,0.000
243165.000,405428.500,649482.200,666256.900,709440.000,709443.100,709828.100,709625.600,0.000
243084.400,405230.100,649148.700,665857.300,709434.100,709437.200,709822.400,709619.400,0.000
243043.200,404993.900,648795.300,665439.600,709430.000,709432.800,709818.200,709614.800,0.000
243106.300,405047.400,648648.600,665413.000,709436.700,709439.400,709824.800,709621.100,0.000
243191.400,405323.400,648655.500,665647.700,709445.900,709448.600,709834.100,709630.900,0.000
243169.000,405420.300,648521.900,665623.800,709441.200,709443.900,709829.100,709626.500,0.000
243069.900,405202.200,648165.800,665198.800,709430.600,709433.300,709818.400,709615.400,0.000
243028.700,404966.500,647812.700,664782.300,709428.900,709431.400,709816.600,709613.100,0.000
243091.800,405028.500,647670.000,664751.800,709436.100,709438.100,709823.500,709619.900,0.000
243186.800,405310.800,647681.800,664985.400,709446.200,709448.300,709833.700,709630.600,0.000
243186.700,405436.200,647574.100,664987.300,709446.800,709449.400,709834.700,709631.600,0.000
243094.100,405222.900,647230.200,664570.900,709437.300,709439.700,709825.100,709621.500,0.000
243047.600,404979.700,646872.100,664146.100,709433.100,709435.800,709821.100,709616.900,0.000
243115.500,405035.800,646727.200,664113.300,709438.300,709440.800,709826.200,709621.900,0.000
243193.100,405296.500,646720.900,664324.400,709444.700,709447.000,709832.500,709628.500,0.000
243185.700,405417.700,646607.600,664315.300,709442.700,709445.200,709830.400,709626.600,0.000
243099.000,405208.400,646271.100,663908.200,709433.500,709436.000,709821.200,709617.300,0.000
243059.000,404976.800,645922.800,663493.600,709432.100,709434.700,709819.600,709615.500,0.000
243106.300,405022.900,645771.000,663450.700,709438.300,709440.800,709825.400,709621.500,0.000
243180.500,405284.600,645764.100,663660.400,709443.900,709446.600,709831.400,709627.400,0.000
243182.200,405408.900,645657.500,663655.800,709447.400,709450.100,709835.200,709631.400,0.000
243096.800,405207.700,645318.100,663243.300,709437.300,709439.800,709825.200,709620.900,0.000
243057.400,404973.600,644966.900,662822.900,709433.700,709436.200,709821.000,709616.800,0.000
243114.900,405024.700,644821.300,662783.400,709440.200,709443.000,709827.900,709623.400,0.000
243188.000,405285.300,644817.300,662990.100,709445.000,709448.100,709833.300,709628.700,0.000
243178.300,405400.500,644707.900,662980.300,709444.400,709447.200,709832.700,709628.600,0.000
243096.600,405204.800,644383.200,662585.600,709438.100,709441.000,709825.800,709621.900,0.000
243056.300,404963.500,644036.400,662173.400,709436.400,709438.900,709824.200,709619.400,0.000
243110.800,405010.600,643887.600,662129.000,709440.800,709443.400,709828.600,709623.600,0.000
243178.900,405260.100,643872.300,662322.800,709443.400,709446.100,709830.900,709626.600,0.000
243171.900,405376.300,643760.600,662313.600,709444.900,709447.800,709832.800,709628.300,0.000
243079.100,405173.300,643423.900,661908.400,709435.300,709437.900,709823.600,709618.600,0.000
243047.600,404949.200,643089.100,661507.600,709436.400,709439.100,709824.500,709619.100,0.000
243122.600,405008.500,642960.200,661483.200,709447.000,709449.900,709834.800,709629.400,0.000
243208.300,405270.600,642961.400,661691.300,709456.800,709459.100,709844.300,709639.400,0.000
243198.000,405380.700,642843.200,661673.300,709451.600,709453.600,709839.400,709634.300,0.000
243118.300,405188.400,642514.200,661274.800,709442.900,709445.000,709830.300,709625.400,0.000
243078.400,404948.700,642162.100,660854.200,709440.500,709443.100,709827.500,709622.800,0.000
243144.200,404993.300,642015.600,660811.100,709445.200,709447.900,709832.000,709627.500,0.000
243224.300,405250.700,642011.300,661014.200,709451.800,709454.800,709838.900,709634.500,0.000
243213.000,405359.900,641895.400,660998.500,709449.800,709452.600,709837.000,709632.700,0.000
243127.600,405162.900,641569.800,660602.400,709440.500,709443.000,709827.600,709622.500,0.000
243086.700,404922.400,641226.800,660191.200,709437.800,709440.500,709825.300,709619.400,0.000
243136.100,404950.600,641073.900,660138.100,709439.800,709442.900,709827.400,709621.600,0.000
243215.600,405203.000,641072.800,660341.000,709445.600,709448.600,709832.900,709627.900,0.000
243203.400,405317.200,640964.100,660332.500,709443.500,709446.000,709830.400,709625.400,0.000
243112.900,405115.900,640630.100,659928.700,709430.800,709433.300,709817.500,709612.100,0.000
243080.200,404887.800,640295.200,659523.700,709430.600,709433.300,709817.300,709611.700,0.000
243133.700,404928.800,640148.300,659479.800,709437.800,709440.600,709824.600,709619.400,0.000
243209.000,405184.800,640144.100,659684.100,709444.300,709446.800,709831.000,709625.800,0.000
243199.600,405300.400,640033.200,659677.500,709441.100,709443.700,709828.800,709622.900,0.000
243120.300,405115.800,639716.000,659291.200,709435.600,709438.300,709823.100,709617.100,0.000
243074.700,404870.400,639366.100,658872.600,709429.300,709432.000,709816.400,709610.300,0.000
243132.000,404909.600,639216.800,658822.900,709432.100,709434.800,709819.300,709613.600,0.000
243211.800,405171.100,639221.000,659033.700,709438.800,709441.600,709826.000,709620.300,0.000
243197.200,405290.500,639117.100,659034.600,709437.000,709439.600,709824.300,709618.800,0.000
243114.800,405109.700,638806.700,658657.800,709430.100,709432.700,709817.300,709611.900,0.000
243084.900,404893.900,638487.100,658265.300,709434.200,709437.000,709821.400,709615.400,0.000
243134.200,404933.000,638345.800,658221.300,709440.900,709443.600,709828.300,709621.600,0.000
243204.800,405176.300,638337.100,658418.300,709445.100,709447.600,709832.300,709626.000,0.000
243204.900,405291.300,638237.000,658422.600,709445.800,709448.500,709833.300,709626.900,0.000
243121.100,405097.000,637921.300,658035.500,709439.400,709442.100,709826.400,709619.600,0.000
243079.600,404870.500,637590.000,657628.400,709437.500,709440.100,709823.800,709617.600,0.000
243120.300,404896.700,637433.900,657567.700,709439.600,709442.200,709826.000,709620.000,0.000
243196.000,405156.800,637438.100,657772.800,709444.300,709447.100,709830.900,709625.200,0.000
243195.900,405285.800,637345.400,657777.800,709446.000,709448.800,709832.900,709626.900,0.000
243120.500,405102.100,637035.000,657396.600,709441.000,709443.900,709828.300,709621.800,0.000
243082.200,404864.700,636695.400,656982.100,709438.500,709441.600,709825.400,709618.800,0.000
243135.900,404898.700,636547.900,656926.400,709441.800,709444.800,709828.300,709621.700,0.000
243206.800,405148.100,636546.600,657126.600,709445.500,709448.100,709832.600,709626.100,0.000
243189.100,405260.500,636437.900,657118.300,709440.900,709443.800,709827.900,709621.500,0.000
243101.900,405064.500,636119.500,656725.900,709432.900,709436.100,709819.800,709612.600,0.000
243063.900,404833.300,635788.900,656317.600,709432.500,709435.600,709819.400,709612.100,0.000
243115.400,404872.900,635643.600,656264.900,709437.300,709439.800,709824.200,709617.100,0.000
243200.700,405138.700,635651.200,656478.400,709445.800,709448.300,709832.300,709625.600,0.000
